SpectraSuite Data File
++++++++++++++++++++++++++++++++++++
Date: Wed Jul 25 11:03:09 HST 2007
User: guest
Dark Spectrum Present: Yes
Reference Spectrum Present: No
Number of Sampled Component Spectra: 1
Spectrometers: USB4E01242
Integration Time (usec): 100000 (USB4E01242)
Spectra Averaged: 1 (USB4E01242)
Boxcar Smoothing: 10 (USB4E01242)
Correct for Electrical Dark: No (USB4E01242)
Strobe/Lamp Enabled: No (USB4E01242)
Correct for Detector Non-linearity: No (USB4E01242)
Correct for Stray Light: No (USB4E01242)
Number of Pixels in Processed Spectrum: 3648
>>>>>Begin Processed Spectral Data<<<<<
177.33	0.0000E00
177.55	0.0000E00
177.77	0.0000E00
177.99	0.0000E00
178.21	0.0000E00
178.43	0.0000E00
178.64	0.0000E00
178.86	0.0000E00
179.08	0.0000E00
179.30	0.0000E00
179.52	0.0000E00
179.74	0.0000E00
179.96	0.0000E00
180.18	0.0000E00
180.39	0.0000E00
180.61	0.0000E00
180.83	0.0000E00
181.05	-0.0000E00
181.27	0.0000E00
181.49	0.0000E00
181.71	0.0000E00
181.92	0.0000E00
182.14	0.0000E00
182.36	0.0000E00
182.58	0.0000E00
182.80	0.0000E00
183.02	0.0000E00
183.23	0.0000E00
183.45	0.0000E00
183.67	0.0000E00
183.89	0.0000E00
184.11	0.0000E00
184.33	0.0000E00
184.55	0.0000E00
184.76	0.0000E00
184.98	0.0000E00
185.20	-0.0000E00
185.42	0.0000E00
185.64	0.0000E00
185.86	0.0000E00
186.07	0.0000E00
186.29	0.0000E00
186.51	0.0000E00
186.73	0.0000E00
186.95	0.0000E00
187.17	0.0000E00
187.38	0.0000E00
187.60	0.0000E00
187.82	0.0000E00
188.04	0.0000E00
188.26	0.0000E00
188.47	0.0000E00
188.69	0.0000E00
188.91	0.0000E00
189.13	0.0000E00
189.35	0.0000E00
189.57	0.0000E00
189.78	0.0000E00
190.00	0.0000E00
190.22	0.0000E00
190.44	0.0000E00
190.66	0.0000E00
190.87	0.0000E00
191.09	0.0000E00
191.31	0.0000E00
191.53	-0.0000E00
191.75	0.0000E00
191.97	0.0000E00
192.18	0.0000E00
192.40	0.0000E00
192.62	0.0000E00
192.84	0.0000E00
193.06	0.0000E00
193.27	0.0000E00
193.49	0.0000E00
193.71	0.0000E00
193.93	-0.0000E00
194.15	0.0000E00
194.36	0.0000E00
194.58	0.0000E00
194.80	0.0000E00
195.02	0.0000E00
195.23	0.0000E00
195.45	0.0000E00
195.67	0.0000E00
195.89	0.0000E00
196.11	0.0000E00
196.32	0.0000E00
196.54	0.0000E00
196.76	0.0000E00
196.98	0.0000E00
197.20	0.0000E00
197.41	0.0000E00
197.63	0.0000E00
197.85	0.0000E00
198.07	0.0000E00
198.28	0.0000E00
198.50	0.0000E00
198.72	0.0000E00
198.94	0.0000E00
199.16	-0.0000E00
199.37	0.0000E00
199.59	0.0000E00
199.81	0.0000E00
200.03	0.0000E00
200.24	0.0000E00
200.46	0.0000E00
200.68	0.0000E00
200.90	0.0000E00
201.11	0.0000E00
201.33	0.0000E00
201.55	0.0000E00
201.77	0.0000E00
201.98	0.0000E00
202.20	0.0000E00
202.42	0.0000E00
202.64	-0.0000E00
202.86	0.0000E00
203.07	0.0000E00
203.29	0.0000E00
203.51	0.0000E00
203.73	0.0000E00
203.94	0.0000E00
204.16	0.0000E00
204.38	0.0000E00
204.60	0.0000E00
204.81	0.0000E00
205.03	-0.0000E00
205.25	0.0000E00
205.46	0.0000E00
205.68	0.0000E00
205.90	-0.0000E00
206.12	0.0000E00
206.33	0.0000E00
206.55	0.0000E00
206.77	0.0000E00
206.99	0.0000E00
207.20	0.0000E00
207.42	0.0000E00
207.64	0.0000E00
207.86	0.0000E00
208.07	0.0000E00
208.29	0.0000E00
208.51	0.0000E00
208.72	0.0000E00
208.94	0.0000E00
209.16	0.0000E00
209.38	0.0000E00
209.59	0.0000E00
209.81	0.0000E00
210.03	0.0000E00
210.25	0.0000E00
210.46	0.0000E00
210.68	0.0000E00
210.90	0.0000E00
211.11	0.0000E00
211.33	-0.0000E00
211.55	0.0000E00
211.77	0.0000E00
211.98	0.0000E00
212.20	0.0000E00
212.42	0.0000E00
212.63	0.0000E00
212.85	0.0000E00
213.07	0.0000E00
213.29	0.0000E00
213.50	0.0000E00
213.72	0.0000E00
213.94	0.0000E00
214.15	0.0000E00
214.37	0.0000E00
214.59	0.0000E00
214.80	0.0000E00
215.02	0.0000E00
215.24	0.0000E00
215.45	0.0000E00
215.67	0.0000E00
215.89	0.0000E00
216.11	0.0000E00
216.32	0.0000E00
216.54	0.0000E00
216.76	0.0000E00
216.97	0.0000E00
217.19	0.0000E00
217.41	0.0000E00
217.62	0.0000E00
217.84	0.0000E00
218.06	0.0000E00
218.27	0.0000E00
218.49	0.0000E00
218.71	0.0000E00
218.92	0.0000E00
219.14	0.0000E00
219.36	0.0000E00
219.57	0.0000E00
219.79	0.0000E00
220.01	0.0000E00
220.22	0.0000E00
220.44	0.0000E00
220.66	0.0000E00
220.88	0.0000E00
221.09	0.0000E00
221.31	0.0000E00
221.53	0.0000E00
221.74	0.0000E00
221.96	0.0000E00
222.17	0.0000E00
222.39	0.0000E00
222.61	0.0000E00
222.82	0.0000E00
223.04	0.0000E00
223.26	0.0000E00
223.47	-0.0000E00
223.69	0.0000E00
223.91	0.0000E00
224.12	0.0000E00
224.34	0.0000E00
224.56	0.0000E00
224.77	0.0000E00
224.99	0.0000E00
225.21	0.0000E00
225.42	0.0000E00
225.64	0.0000E00
225.86	0.0000E00
226.07	0.0000E00
226.29	0.0000E00
226.50	0.0000E00
226.72	0.0000E00
226.94	0.0000E00
227.15	0.0000E00
227.37	0.0000E00
227.59	0.0000E00
227.80	0.0000E00
228.02	0.0000E00
228.24	0.0000E00
228.45	0.0000E00
228.67	-0.0000E00
228.88	0.0000E00
229.10	0.0000E00
229.32	-0.0000E00
229.53	0.0000E00
229.75	0.0000E00
229.97	0.0000E00
230.18	0.0000E00
230.40	0.0000E00
230.61	0.0000E00
230.83	0.0000E00
231.05	0.0000E00
231.26	0.0000E00
231.48	0.0000E00
231.70	0.0000E00
231.91	0.0000E00
232.13	0.0000E00
232.34	0.0000E00
232.56	0.0000E00
232.78	0.0000E00
232.99	0.0000E00
233.21	0.0000E00
233.42	0.0000E00
233.64	0.0000E00
233.86	0.0000E00
234.07	0.0000E00
234.29	0.0000E00
234.50	-0.0000E00
234.72	0.0000E00
234.94	-0.0000E00
235.15	0.0000E00
235.37	0.0000E00
235.58	0.0000E00
235.80	0.0000E00
236.02	0.0000E00
236.23	0.0000E00
236.45	-0.0000E00
236.66	0.0000E00
236.88	0.0000E00
237.10	0.0000E00
237.31	0.0000E00
237.53	0.0000E00
237.74	0.0000E00
237.96	0.0000E00
238.17	0.0000E00
238.39	0.0000E00
238.61	0.0000E00
238.82	-0.0000E00
239.04	0.0000E00
239.25	0.0000E00
239.47	0.0000E00
239.69	0.0000E00
239.90	0.0000E00
240.12	0.0000E00
240.33	0.0000E00
240.55	0.0000E00
240.76	0.0000E00
240.98	0.0000E00
241.20	0.0000E00
241.41	0.0000E00
241.63	0.0000E00
241.84	0.0000E00
242.06	0.0000E00
242.27	0.0000E00
242.49	0.0000E00
242.70	0.0000E00
242.92	0.0000E00
243.14	0.0000E00
243.35	0.0000E00
243.57	0.0000E00
243.78	0.0000E00
244.00	0.0000E00
244.21	0.0000E00
244.43	0.0000E00
244.64	0.0000E00
244.86	0.0000E00
245.08	-0.0000E00
245.29	0.0000E00
245.51	0.0000E00
245.72	0.0000E00
245.94	0.0000E00
246.15	0.0000E00
246.37	0.0000E00
246.58	0.0000E00
246.80	0.0000E00
247.01	0.0000E00
247.23	0.0000E00
247.45	0.0000E00
247.66	0.0000E00
247.88	0.0000E00
248.09	0.0000E00
248.31	0.0000E00
248.52	0.0000E00
248.74	0.0000E00
248.95	0.0000E00
249.17	0.0000E00
249.38	-0.0000E00
249.60	0.0000E00
249.81	0.0000E00
250.03	0.0000E00
250.24	0.0000E00
250.46	0.0000E00
250.67	0.0000E00
250.89	0.0000E00
251.10	0.0000E00
251.32	0.0000E00
251.53	0.0000E00
251.75	0.0000E00
251.97	0.0000E00
252.18	0.0000E00
252.40	0.0000E00
252.61	0.0000E00
252.83	0.0000E00
253.04	0.0000E00
253.26	0.0000E00
253.47	0.0000E00
253.69	0.0000E00
253.90	0.0000E00
254.12	0.0000E00
254.33	0.0000E00
254.55	0.0000E00
254.76	0.0000E00
254.98	0.0000E00
255.19	0.0000E00
255.41	0.0000E00
255.62	0.0000E00
255.84	0.0000E00
256.05	0.0000E00
256.27	0.0000E00
256.48	0.0000E00
256.70	0.0000E00
256.91	0.0000E00
257.13	0.0000E00
257.34	0.0000E00
257.55	0.0000E00
257.77	0.0000E00
257.98	0.0000E00
258.20	0.0000E00
258.41	0.0000E00
258.63	0.0000E00
258.84	0.0000E00
259.06	0.0000E00
259.27	0.0000E00
259.49	0.0000E00
259.70	0.0000E00
259.92	0.0000E00
260.13	0.0000E00
260.35	0.0000E00
260.56	0.0000E00
260.78	0.0000E00
260.99	0.0000E00
261.21	0.0000E00
261.42	0.0000E00
261.63	0.0000E00
261.85	0.0000E00
262.06	0.0000E00
262.28	0.0000E00
262.49	0.0000E00
262.71	0.0000E00
262.92	0.0000E00
263.14	0.0000E00
263.35	0.0000E00
263.57	0.0000E00
263.78	0.0000E00
264.00	0.0000E00
264.21	0.0000E00
264.42	0.0000E00
264.64	0.0000E00
264.85	0.0000E00
265.07	0.0000E00
265.28	0.0000E00
265.50	0.0000E00
265.71	0.0000E00
265.93	0.0000E00
266.14	0.0000E00
266.35	0.0000E00
266.57	0.0000E00
266.78	0.0000E00
267.00	0.0000E00
267.21	0.0000E00
267.43	0.0000E00
267.64	0.0000E00
267.85	0.0000E00
268.07	0.0000E00
268.28	0.0000E00
268.50	0.0000E00
268.71	0.0000E00
268.93	0.0000E00
269.14	0.0000E00
269.35	0.0000E00
269.57	0.0000E00
269.78	0.0000E00
270.00	0.0000E00
270.21	0.0000E00
270.43	0.0000E00
270.64	0.0000E00
270.85	0.0000E00
271.07	0.0000E00
271.28	0.0000E00
271.50	0.0000E00
271.71	0.0000E00
271.92	0.0000E00
272.14	0.0000E00
272.35	0.0000E00
272.57	0.0000E00
272.78	0.0000E00
272.99	0.0000E00
273.21	-0.0000E00
273.42	0.0000E00
273.64	0.0000E00
273.85	0.0000E00
274.07	0.0000E00
274.28	0.0000E00
274.49	0.0000E00
274.71	0.0000E00
274.92	0.0000E00
275.13	0.0000E00
275.35	0.0000E00
275.56	0.0000E00
275.78	0.0000E00
275.99	0.0000E00
276.20	0.0000E00
276.42	-0.0000E00
276.63	-0.0000E00
276.85	0.0000E00
277.06	0.0000E00
277.27	0.0000E00
277.49	0.0000E00
277.70	0.0000E00
277.92	0.0000E00
278.13	0.0000E00
278.34	0.0000E00
278.56	0.0000E00
278.77	0.0000E00
278.98	0.0000E00
279.20	0.0000E00
279.41	0.0000E00
279.63	0.0000E00
279.84	-0.0000E00
280.05	0.0000E00
280.27	0.0000E00
280.48	0.0000E00
280.69	0.0000E00
280.91	0.0000E00
281.12	0.0000E00
281.33	0.0000E00
281.55	0.0000E00
281.76	0.0000E00
281.98	0.0000E00
282.19	0.0000E00
282.40	0.0000E00
282.62	0.0000E00
282.83	0.0000E00
283.04	0.0000E00
283.26	0.0000E00
283.47	0.0000E00
283.68	0.0000E00
283.90	0.0000E00
284.11	0.0000E00
284.32	0.0000E00
284.54	0.0000E00
284.75	0.0000E00
284.96	0.0000E00
285.18	-0.0000E00
285.39	0.0000E00
285.60	0.0000E00
285.82	0.0000E00
286.03	0.0000E00
286.24	0.0000E00
286.46	0.0000E00
286.67	0.0000E00
286.88	0.0000E00
287.10	0.0000E00
287.31	0.0000E00
287.52	0.0000E00
287.74	0.0000E00
287.95	0.0000E00
288.16	0.0000E00
288.38	0.0000E00
288.59	-0.0000E00
288.80	0.0000E00
289.02	0.0000E00
289.23	0.0000E00
289.44	0.0000E00
289.66	0.0000E00
289.87	0.0000E00
290.08	0.0000E00
290.30	0.0000E00
290.51	0.0000E00
290.72	0.0000E00
290.94	0.0000E00
291.15	0.0000E00
291.36	0.0000E00
291.57	0.0000E00
291.79	0.0000E00
292.00	0.0000E00
292.21	0.0000E00
292.43	0.0000E00
292.64	0.0000E00
292.85	0.0000E00
293.07	0.0000E00
293.28	0.0000E00
293.49	0.0000E00
293.70	0.0000E00
293.92	0.0000E00
294.13	0.0000E00
294.34	0.0000E00
294.56	0.0000E00
294.77	0.0000E00
294.98	0.0000E00
295.20	0.0000E00
295.41	0.0000E00
295.62	0.0000E00
295.83	0.0000E00
296.05	0.0000E00
296.26	-0.0000E00
296.47	0.0000E00
296.69	0.0000E00
296.90	0.0000E00
297.11	0.0000E00
297.32	-0.0000E00
297.54	0.0000E00
297.75	-0.0000E00
297.96	0.0000E00
298.17	0.0000E00
298.39	0.0000E00
298.60	0.0000E00
298.81	0.0000E00
299.03	0.0000E00
299.24	0.0000E00
299.45	0.0000E00
299.66	0.0000E00
299.88	0.0000E00
300.09	2.9025E-04
300.30	1.8856E-04
300.51	3.1717E-04
300.73	1.4673E-04
300.94	2.2463E-04
301.15	2.8450E-04
301.36	1.7488E-04
301.58	2.2780E-04
301.79	3.9748E-04
302.00	2.9560E-04
302.21	2.1219E-04
302.43	3.1334E-04
302.64	2.4434E-04
302.85	3.3942E-04
303.06	1.4166E-04
303.28	3.1131E-04
303.49	1.9543E-04
303.70	4.2069E-04
303.91	1.9767E-04
304.13	2.0816E-04
304.34	2.2876E-04
304.55	4.5441E-04
304.76	1.5162E-04
304.98	1.8122E-04
305.19	3.9462E-04
305.40	1.8197E-04
305.61	3.8720E-04
305.82	2.5951E-04
306.04	3.5707E-04
306.25	1.7575E-04
306.46	3.8163E-04
306.67	1.9807E-04
306.89	3.0544E-04
307.10	3.7592E-04
307.31	4.1111E-04
307.52	3.0634E-04
307.74	5.0781E-04
307.95	4.8169E-04
308.16	1.5588E-04
308.37	4.4754E-04
308.58	3.4746E-04
308.80	4.7078E-04
309.01	4.4330E-04
309.22	1.8501E-04
309.43	2.6034E-04
309.64	4.2729E-04
309.86	4.8565E-04
310.07	3.2482E-04
310.28	4.6199E-04
310.49	5.0302E-04
310.70	3.5000E-04
310.92	4.6751E-04
311.13	3.3374E-04
311.34	4.4646E-04
311.55	4.6707E-04
311.76	3.8245E-04
311.98	4.6184E-04
312.19	5.1159E-04
312.40	3.4062E-04
312.61	4.0016E-04
312.82	4.6912E-04
313.04	2.9823E-04
313.25	4.9822E-04
313.46	3.7073E-04
313.67	3.6927E-04
313.88	3.7919E-04
314.10	3.4657E-04
314.31	3.4103E-04
314.52	3.5491E-04
314.73	3.5946E-04
314.94	3.7178E-04
315.16	5.3232E-04
315.37	5.3545E-04
315.58	4.7724E-04
315.79	4.8495E-04
316.00	4.8797E-04
316.21	4.9729E-04
316.43	3.3641E-04
316.64	3.9049E-04
316.85	2.9900E-04
317.06	4.4386E-04
317.27	4.9095E-04
317.48	3.8716E-04
317.70	4.1278E-04
317.91	4.3249E-04
318.12	4.5026E-04
318.33	3.7347E-04
318.54	4.2382E-04
318.75	5.4950E-04
318.97	4.9832E-04
319.18	4.7820E-04
319.39	4.6766E-04
319.60	4.5349E-04
319.81	5.1896E-04
320.02	4.8217E-04
320.24	4.6404E-04
320.45	4.8025E-04
320.66	4.0493E-04
320.87	4.6416E-04
321.08	5.2599E-04
321.29	4.8803E-04
321.50	4.2265E-04
321.72	3.7069E-04
321.93	4.9269E-04
322.14	5.0888E-04
322.35	4.7991E-04
322.56	5.6610E-04
322.77	6.4956E-04
322.98	5.4526E-04
323.20	6.0637E-04
323.41	4.9105E-04
323.62	4.8664E-04
323.83	5.0769E-04
324.04	4.5160E-04
324.25	4.3142E-04
324.46	5.3125E-04
324.67	4.9057E-04
324.89	4.5831E-04
325.10	4.9175E-04
325.31	5.9480E-04
325.52	6.5178E-04
325.73	5.5916E-04
325.94	5.9445E-04
326.15	4.8230E-04
326.36	6.5128E-04
326.58	8.2453E-04
326.79	7.0308E-04
327.00	4.0752E-04
327.21	6.3232E-04
327.42	6.3636E-04
327.63	6.7626E-04
327.84	6.9746E-04
328.05	7.4195E-04
328.26	6.2002E-04
328.48	6.8475E-04
328.69	9.4043E-04
328.90	7.2628E-04
329.11	7.5175E-04
329.32	7.6544E-04
329.53	6.1939E-04
329.74	7.5950E-04
329.95	7.4495E-04
330.16	6.9985E-04
330.37	7.3574E-04
330.59	7.8658E-04
330.80	8.8927E-04
331.01	8.9379E-04
331.22	8.9065E-04
331.43	8.0521E-04
331.64	6.7591E-04
331.85	8.7860E-04
332.06	8.4206E-04
332.27	7.8621E-04
332.48	9.7802E-04
332.69	7.4352E-04
332.91	9.0735E-04
333.12	7.8281E-04
333.33	1.0706E-03
333.54	7.6968E-04
333.75	5.8911E-04
333.96	7.4020E-04
334.17	6.1267E-04
334.38	7.8210E-04
334.59	1.0378E-03
334.80	7.2343E-04
335.01	7.5478E-04
335.22	7.1910E-04
335.43	7.7259E-04
335.64	8.2322E-04
335.86	9.7573E-04
336.07	7.9188E-04
336.28	5.8420E-04
336.49	1.0239E-03
336.70	7.5025E-04
336.91	8.3376E-04
337.12	7.3721E-04
337.33	7.9739E-04
337.54	7.4012E-04
337.75	7.4295E-04
337.96	8.6939E-04
338.17	8.8487E-04
338.38	8.2112E-04
338.59	8.7141E-04
338.80	6.2598E-04
339.01	9.8527E-04
339.22	9.5350E-04
339.43	9.3934E-04
339.65	9.1921E-04
339.86	8.0280E-04
340.07	8.4173E-04
340.28	9.7577E-04
340.49	7.9011E-04
340.70	9.2392E-04
340.91	8.5256E-04
341.12	7.9651E-04
341.33	9.6182E-04
341.54	9.7051E-04
341.75	8.5162E-04
341.96	8.9841E-04
342.17	9.8706E-04
342.38	7.8026E-04
342.59	8.2265E-04
342.80	8.7547E-04
343.01	9.7930E-04
343.22	9.4588E-04
343.43	8.3977E-04
343.64	9.0079E-04
343.85	8.3843E-04
344.06	9.1022E-04
344.27	9.9926E-04
344.48	1.1638E-03
344.69	9.3923E-04
344.90	9.3675E-04
345.11	9.7564E-04
345.32	9.2342E-04
345.53	7.5943E-04
345.74	1.0149E-03
345.95	8.0200E-04
346.16	9.1507E-04
346.37	9.4846E-04
346.58	9.8192E-04
346.79	8.9961E-04
347.00	1.1197E-03
347.21	1.1597E-03
347.42	9.6499E-04
347.63	8.2630E-04
347.84	1.0205E-03
348.05	1.1127E-03
348.26	9.6980E-04
348.47	1.0609E-03
348.68	9.9034E-04
348.89	7.8497E-04
349.10	1.0419E-03
349.31	1.2784E-03
349.52	9.5719E-04
349.73	1.0579E-03
349.94	1.0760E-03
350.15	9.6156E-04
350.36	1.1471E-03
350.57	1.1358E-03
350.78	1.1946E-03
350.99	1.2025E-03
351.20	1.1535E-03
351.41	1.2773E-03
351.62	1.0761E-03
351.83	1.0850E-03
352.04	1.1253E-03
352.25	1.1395E-03
352.46	1.0743E-03
352.67	1.0692E-03
352.88	1.1839E-03
353.09	8.9380E-04
353.30	1.0255E-03
353.51	1.1343E-03
353.72	1.3020E-03
353.93	1.0351E-03
354.14	1.0463E-03
354.35	1.2403E-03
354.56	1.1646E-03
354.77	1.3778E-03
354.98	1.0956E-03
355.19	1.1574E-03
355.39	1.0681E-03
355.60	1.0399E-03
355.81	1.1169E-03
356.02	1.2896E-03
356.23	9.7380E-04
356.44	8.7140E-04
356.65	1.2663E-03
356.86	1.1220E-03
357.07	1.0818E-03
357.28	1.2199E-03
357.49	1.1867E-03
357.70	1.2687E-03
357.91	1.0077E-03
358.12	9.5410E-04
358.33	1.1458E-03
358.54	1.2432E-03
358.75	1.1240E-03
358.96	1.1901E-03
359.16	9.0694E-04
359.37	1.3056E-03
359.58	1.2219E-03
359.79	1.0819E-03
360.00	1.1791E-03
360.21	1.2707E-03
360.42	1.0914E-03
360.63	1.3908E-03
360.84	1.4628E-03
361.05	1.0825E-03
361.26	1.1622E-03
361.47	1.4214E-03
361.68	1.2654E-03
361.88	1.2824E-03
362.09	1.2445E-03
362.30	1.4262E-03
362.51	1.2182E-03
362.72	1.4007E-03
362.93	1.3534E-03
363.14	1.4462E-03
363.35	1.3691E-03
363.56	1.2709E-03
363.77	1.4375E-03
363.98	1.4606E-03
364.18	1.6480E-03
364.39	1.5721E-03
364.60	1.5478E-03
364.81	1.6235E-03
365.02	1.5385E-03
365.23	1.6309E-03
365.44	1.5654E-03
365.65	1.4762E-03
365.86	1.3947E-03
366.07	1.6047E-03
366.27	1.6096E-03
366.48	1.6805E-03
366.69	1.6047E-03
366.90	1.5720E-03
367.11	1.5706E-03
367.32	1.5703E-03
367.53	1.6079E-03
367.74	1.4339E-03
367.95	1.4447E-03
368.15	1.5917E-03
368.36	1.5635E-03
368.57	1.3859E-03
368.78	1.6331E-03
368.99	1.5609E-03
369.20	1.4454E-03
369.41	1.7881E-03
369.62	1.5835E-03
369.82	1.7586E-03
370.03	1.4850E-03
370.24	1.7415E-03
370.45	1.4876E-03
370.66	1.3694E-03
370.87	1.4566E-03
371.08	1.4269E-03
371.28	1.4532E-03
371.49	1.4725E-03
371.70	1.4247E-03
371.91	1.3848E-03
372.12	1.3567E-03
372.33	1.4259E-03
372.54	1.4415E-03
372.74	1.4896E-03
372.95	1.2492E-03
373.16	1.5224E-03
373.37	1.4841E-03
373.58	1.3268E-03
373.79	1.5161E-03
374.00	1.3290E-03
374.20	1.5696E-03
374.41	1.5653E-03
374.62	1.3757E-03
374.83	1.4183E-03
375.04	1.5193E-03
375.25	1.5630E-03
375.45	1.3822E-03
375.66	1.6439E-03
375.87	1.5660E-03
376.08	1.7721E-03
376.29	1.7676E-03
376.50	1.6858E-03
376.70	1.5479E-03
376.91	1.6606E-03
377.12	1.6511E-03
377.33	1.4804E-03
377.54	1.5653E-03
377.75	1.7781E-03
377.95	1.6403E-03
378.16	1.6174E-03
378.37	1.5016E-03
378.58	1.6882E-03
378.79	1.5017E-03
379.00	1.6969E-03
379.20	1.5275E-03
379.41	1.6422E-03
379.62	1.6204E-03
379.83	1.5124E-03
380.04	1.5050E-03
380.24	1.5766E-03
380.45	1.2645E-03
380.66	1.4275E-03
380.87	1.5121E-03
381.08	1.5313E-03
381.28	1.3689E-03
381.49	1.4827E-03
381.70	1.3853E-03
381.91	1.4215E-03
382.12	1.4940E-03
382.32	1.3859E-03
382.53	1.5429E-03
382.74	1.3377E-03
382.95	1.4309E-03
383.16	1.4820E-03
383.36	1.2600E-03
383.57	1.4573E-03
383.78	1.5326E-03
383.99	1.3579E-03
384.20	1.4274E-03
384.40	1.4674E-03
384.61	1.6426E-03
384.82	1.6599E-03
385.03	1.6555E-03
385.23	1.6252E-03
385.44	1.5615E-03
385.65	1.7169E-03
385.86	1.5533E-03
386.07	1.9151E-03
386.27	1.5064E-03
386.48	1.6154E-03
386.69	1.7578E-03
386.90	1.4883E-03
387.10	1.5832E-03
387.31	1.8120E-03
387.52	1.6536E-03
387.73	1.7978E-03
387.94	1.8764E-03
388.14	1.6766E-03
388.35	1.8040E-03
388.56	2.0797E-03
388.77	1.9053E-03
388.97	1.9724E-03
389.18	1.9817E-03
389.39	1.8803E-03
389.60	1.9738E-03
389.80	2.0761E-03
390.01	2.0155E-03
390.22	1.9655E-03
390.43	1.7863E-03
390.63	1.8565E-03
390.84	1.8701E-03
391.05	2.0209E-03
391.26	1.8881E-03
391.46	1.8222E-03
391.67	1.8163E-03
391.88	1.6166E-03
392.09	1.6463E-03
392.29	1.8910E-03
392.50	1.7128E-03
392.71	1.8084E-03
392.92	1.8438E-03
393.12	1.8287E-03
393.33	1.9220E-03
393.54	1.7522E-03
393.74	1.6183E-03
393.95	1.6982E-03
394.16	1.9386E-03
394.37	1.8169E-03
394.57	1.7913E-03
394.78	1.9116E-03
394.99	1.9231E-03
395.19	1.8149E-03
395.40	1.8214E-03
395.61	1.8482E-03
395.82	2.0814E-03
396.02	1.9616E-03
396.23	2.1517E-03
396.44	2.2584E-03
396.65	1.9925E-03
396.85	2.3314E-03
397.06	2.2942E-03
397.27	2.2870E-03
397.47	2.4130E-03
397.68	2.3938E-03
397.89	2.3173E-03
398.09	2.3779E-03
398.30	2.4190E-03
398.51	2.4173E-03
398.72	2.5343E-03
398.92	2.7407E-03
399.13	2.7121E-03
399.34	2.9802E-03
399.54	2.9984E-03
399.75	2.9956E-03
399.96	2.7486E-03
400.16	2.8387E-03
400.37	2.9309E-03
400.58	2.9398E-03
400.78	3.0398E-03
400.99	2.7663E-03
401.20	3.0879E-03
401.41	3.0844E-03
401.61	2.8975E-03
401.82	3.0403E-03
402.03	2.9524E-03
402.23	2.9525E-03
402.44	3.0529E-03
402.65	2.9412E-03
402.85	2.9915E-03
403.06	2.9599E-03
403.27	2.9094E-03
403.47	3.0315E-03
403.68	2.8995E-03
403.89	3.0684E-03
404.09	2.9969E-03
404.30	2.8298E-03
404.51	2.9853E-03
404.71	3.0160E-03
404.92	3.0421E-03
405.13	2.8384E-03
405.33	2.9100E-03
405.54	2.8800E-03
405.75	3.0269E-03
405.95	3.0178E-03
406.16	2.7597E-03
406.37	3.0173E-03
406.57	2.9826E-03
406.78	3.1178E-03
406.99	3.0833E-03
407.19	3.1775E-03
407.40	3.1174E-03
407.60	3.1094E-03
407.81	3.1031E-03
408.02	2.9871E-03
408.22	2.9621E-03
408.43	3.1854E-03
408.64	3.0781E-03
408.84	3.1035E-03
409.05	2.8573E-03
409.26	3.2433E-03
409.46	3.1224E-03
409.67	3.1674E-03
409.87	3.2666E-03
410.08	3.1067E-03
410.29	3.3190E-03
410.49	3.1343E-03
410.70	3.2766E-03
410.91	3.2021E-03
411.11	3.3599E-03
411.32	3.2294E-03
411.52	3.0933E-03
411.73	3.3340E-03
411.94	3.2595E-03
412.14	3.4057E-03
412.35	3.2432E-03
412.56	3.4037E-03
412.76	3.4264E-03
412.97	3.2225E-03
413.17	3.4153E-03
413.38	3.5217E-03
413.59	3.3747E-03
413.79	3.3762E-03
414.00	3.4717E-03
414.20	3.5486E-03
414.41	3.2772E-03
414.62	3.5338E-03
414.82	3.3525E-03
415.03	3.2119E-03
415.23	3.4630E-03
415.44	3.3434E-03
415.65	3.4608E-03
415.85	3.3322E-03
416.06	3.5457E-03
416.26	3.5122E-03
416.47	3.4701E-03
416.68	3.5866E-03
416.88	3.6692E-03
417.09	3.2961E-03
417.29	3.4828E-03
417.50	3.5587E-03
417.71	3.5302E-03
417.91	3.5012E-03
418.12	3.5418E-03
418.32	3.6206E-03
418.53	3.6785E-03
418.73	3.3983E-03
418.94	3.4879E-03
419.15	3.4857E-03
419.35	3.5455E-03
419.56	3.5574E-03
419.76	3.3161E-03
419.97	3.7185E-03
420.17	3.4399E-03
420.38	3.3301E-03
420.59	3.5891E-03
420.79	3.7397E-03
421.00	3.4101E-03
421.20	3.3442E-03
421.41	3.4899E-03
421.61	3.4603E-03
421.82	3.5810E-03
422.02	3.5060E-03
422.23	3.2241E-03
422.44	3.6362E-03
422.64	3.3701E-03
422.85	3.4547E-03
423.05	3.5055E-03
423.26	3.4735E-03
423.46	3.4552E-03
423.67	3.3040E-03
423.87	3.4022E-03
424.08	3.3740E-03
424.29	3.4181E-03
424.49	3.5633E-03
424.70	3.2449E-03
424.90	3.4788E-03
425.11	3.5119E-03
425.31	3.4908E-03
425.52	3.4872E-03
425.72	3.3419E-03
425.93	3.3775E-03
426.13	3.3432E-03
426.34	3.2797E-03
426.54	3.3921E-03
426.75	3.3169E-03
426.95	3.3473E-03
427.16	3.3677E-03
427.36	3.2818E-03
427.57	3.0843E-03
427.78	3.1950E-03
427.98	3.1717E-03
428.19	3.2727E-03
428.39	3.1572E-03
428.60	3.1486E-03
428.80	3.1197E-03
429.01	3.3415E-03
429.21	2.9814E-03
429.42	3.3057E-03
429.62	3.2971E-03
429.83	3.1826E-03
430.03	3.0329E-03
430.24	3.2603E-03
430.44	3.0794E-03
430.65	3.2734E-03
430.85	3.3556E-03
431.06	3.2950E-03
431.26	3.3815E-03
431.47	3.2041E-03
431.67	3.6174E-03
431.88	3.4606E-03
432.08	3.5168E-03
432.29	3.5947E-03
432.49	3.4979E-03
432.70	3.5409E-03
432.90	3.7216E-03
433.11	3.6621E-03
433.31	3.4591E-03
433.52	3.7710E-03
433.72	3.6932E-03
433.93	3.7352E-03
434.13	3.7639E-03
434.34	3.9369E-03
434.54	3.6764E-03
434.74	3.8120E-03
434.95	3.7980E-03
435.15	3.8399E-03
435.36	3.8264E-03
435.56	3.6764E-03
435.77	3.7992E-03
435.97	3.7417E-03
436.18	4.0511E-03
436.38	3.9422E-03
436.59	3.7524E-03
436.79	3.9389E-03
437.00	3.9722E-03
437.20	3.8015E-03
437.41	3.6969E-03
437.61	3.9669E-03
437.81	3.8433E-03
438.02	3.7829E-03
438.22	3.8367E-03
438.43	3.7808E-03
438.63	4.0022E-03
438.84	3.8962E-03
439.04	3.8488E-03
439.25	3.9093E-03
439.45	3.7876E-03
439.66	3.8169E-03
439.86	3.8993E-03
440.06	4.1152E-03
440.27	3.8781E-03
440.47	3.8183E-03
440.68	4.0308E-03
440.88	4.0427E-03
441.09	4.0906E-03
441.29	4.1923E-03
441.49	4.0686E-03
441.70	4.2771E-03
441.90	4.0233E-03
442.11	4.2253E-03
442.31	4.2749E-03
442.52	4.2678E-03
442.72	3.9770E-03
442.92	4.1074E-03
443.13	4.2179E-03
443.33	4.1558E-03
443.54	4.1625E-03
443.74	4.2568E-03
443.95	4.2607E-03
444.15	4.1933E-03
444.35	4.3455E-03
444.56	4.1804E-03
444.76	4.1534E-03
444.97	4.5775E-03
445.17	4.3881E-03
445.37	4.5223E-03
445.58	4.1198E-03
445.78	4.3075E-03
445.99	4.2091E-03
446.19	4.2396E-03
446.39	4.2550E-03
446.60	4.2246E-03
446.80	4.2972E-03
447.01	4.3844E-03
447.21	4.5518E-03
447.41	4.2744E-03
447.62	4.5468E-03
447.82	4.4082E-03
448.03	4.5781E-03
448.23	4.5409E-03
448.43	4.5197E-03
448.64	4.6386E-03
448.84	4.5435E-03
449.05	4.3889E-03
449.25	4.5765E-03
449.45	4.4820E-03
449.66	4.5768E-03
449.86	4.5092E-03
450.07	4.4159E-03
450.27	4.6368E-03
450.47	4.4533E-03
450.68	4.6144E-03
450.88	4.4325E-03
451.08	4.5539E-03
451.29	4.4439E-03
451.49	4.6837E-03
451.70	4.6068E-03
451.90	4.7474E-03
452.10	4.6454E-03
452.31	4.4298E-03
452.51	4.5743E-03
452.71	4.5037E-03
452.92	4.5959E-03
453.12	4.6567E-03
453.32	4.6448E-03
453.53	4.4659E-03
453.73	4.4265E-03
453.93	4.3989E-03
454.14	4.6013E-03
454.34	4.6429E-03
454.55	4.6373E-03
454.75	4.6583E-03
454.95	4.3479E-03
455.16	4.8398E-03
455.36	4.4167E-03
455.56	4.7679E-03
455.77	4.7325E-03
455.97	4.7464E-03
456.17	4.5240E-03
456.38	4.7327E-03
456.58	4.7980E-03
456.78	4.6557E-03
456.99	4.4062E-03
457.19	4.7129E-03
457.39	4.6403E-03
457.60	4.7169E-03
457.80	4.7040E-03
458.00	4.6665E-03
458.21	4.8902E-03
458.41	4.8510E-03
458.61	4.6997E-03
458.82	4.6868E-03
459.02	4.6159E-03
459.22	4.9202E-03
459.43	4.9102E-03
459.63	4.8886E-03
459.83	4.6204E-03
460.03	4.8707E-03
460.24	4.8388E-03
460.44	4.6738E-03
460.64	4.7234E-03
460.85	4.9887E-03
461.05	4.7724E-03
461.25	4.8406E-03
461.46	4.7386E-03
461.66	4.6632E-03
461.86	4.8351E-03
462.07	4.9486E-03
462.27	4.8308E-03
462.47	4.9541E-03
462.67	4.7640E-03
462.88	4.9604E-03
463.08	4.6282E-03
463.28	4.8152E-03
463.49	4.8311E-03
463.69	4.8882E-03
463.89	4.7327E-03
464.09	4.7789E-03
464.30	4.7653E-03
464.50	4.9313E-03
464.70	4.8155E-03
464.91	4.6671E-03
465.11	4.6838E-03
465.31	4.6084E-03
465.51	4.7197E-03
465.72	4.8377E-03
465.92	4.7362E-03
466.12	4.5818E-03
466.33	4.6934E-03
466.53	4.7741E-03
466.73	4.8182E-03
466.93	4.7978E-03
467.14	4.5820E-03
467.34	5.0167E-03
467.54	4.8411E-03
467.74	4.7092E-03
467.95	4.7023E-03
468.15	4.6521E-03
468.35	4.8344E-03
468.55	4.9166E-03
468.76	4.7875E-03
468.96	4.7091E-03
469.16	4.6437E-03
469.37	4.6583E-03
469.57	4.8919E-03
469.77	4.7825E-03
469.97	4.7653E-03
470.18	4.9378E-03
470.38	4.8633E-03
470.58	4.7739E-03
470.78	4.8760E-03
470.99	5.0409E-03
471.19	4.7904E-03
471.39	4.8840E-03
471.59	4.6402E-03
471.79	4.7923E-03
472.00	4.8442E-03
472.20	4.8581E-03
472.40	4.6362E-03
472.60	4.9120E-03
472.81	5.0749E-03
473.01	5.0366E-03
473.21	4.8314E-03
473.41	4.6599E-03
473.62	4.8518E-03
473.82	4.9841E-03
474.02	4.9736E-03
474.22	4.9596E-03
474.42	5.0488E-03
474.63	4.9728E-03
474.83	5.0178E-03
475.03	4.9348E-03
475.23	5.0433E-03
475.44	5.1490E-03
475.64	4.8361E-03
475.84	4.9839E-03
476.04	4.9052E-03
476.24	5.1029E-03
476.45	5.0864E-03
476.65	4.9085E-03
476.85	4.9227E-03
477.05	5.0587E-03
477.25	5.1622E-03
477.46	5.0841E-03
477.66	5.0616E-03
477.86	5.1624E-03
478.06	4.8608E-03
478.26	5.0553E-03
478.47	5.0265E-03
478.67	5.4902E-03
478.87	5.0301E-03
479.07	4.9740E-03
479.27	5.1837E-03
479.47	5.1628E-03
479.68	5.1818E-03
479.88	5.1895E-03
480.08	5.1068E-03
480.28	5.1639E-03
480.48	5.0458E-03
480.69	5.2675E-03
480.89	4.9343E-03
481.09	5.0943E-03
481.29	5.2006E-03
481.49	4.8750E-03
481.69	5.0877E-03
481.90	5.1204E-03
482.10	5.0260E-03
482.30	4.9047E-03
482.50	4.9794E-03
482.70	4.9052E-03
482.90	4.8843E-03
483.11	4.9342E-03
483.31	4.8883E-03
483.51	4.7322E-03
483.71	4.7459E-03
483.91	4.7367E-03
484.11	4.8208E-03
484.32	4.7220E-03
484.52	4.8000E-03
484.72	4.7395E-03
484.92	4.6291E-03
485.12	4.5917E-03
485.32	4.6128E-03
485.52	4.5131E-03
485.73	4.5195E-03
485.93	4.5547E-03
486.13	4.5305E-03
486.33	4.6011E-03
486.53	4.6709E-03
486.73	4.7379E-03
486.93	4.5841E-03
487.14	4.7740E-03
487.34	4.7127E-03
487.54	4.7671E-03
487.74	4.7924E-03
487.94	4.6124E-03
488.14	4.7865E-03
488.34	4.7943E-03
488.54	4.8265E-03
488.75	4.7630E-03
488.95	4.8222E-03
489.15	4.7760E-03
489.35	4.7490E-03
489.55	4.8294E-03
489.75	4.8837E-03
489.95	4.8215E-03
490.15	4.8508E-03
490.36	4.9351E-03
490.56	4.8620E-03
490.76	4.9727E-03
490.96	4.8375E-03
491.16	4.9488E-03
491.36	4.9141E-03
491.56	4.9212E-03
491.76	4.7533E-03
491.96	4.9062E-03
492.17	4.8514E-03
492.37	4.9467E-03
492.57	4.9982E-03
492.77	5.0275E-03
492.97	5.0135E-03
493.17	5.0028E-03
493.37	5.0391E-03
493.57	4.9849E-03
493.77	4.9476E-03
493.97	5.1518E-03
494.17	5.0223E-03
494.38	5.1115E-03
494.58	5.0374E-03
494.78	4.9922E-03
494.98	5.0204E-03
495.18	5.0731E-03
495.38	5.0608E-03
495.58	5.0954E-03
495.78	5.1240E-03
495.98	5.1388E-03
496.18	5.1056E-03
496.38	5.0491E-03
496.58	4.9875E-03
496.78	5.1533E-03
496.99	5.0580E-03
497.19	5.0659E-03
497.39	5.1241E-03
497.59	5.0585E-03
497.79	4.9593E-03
497.99	5.0937E-03
498.19	5.0547E-03
498.39	5.1006E-03
498.59	4.9984E-03
498.79	4.9775E-03
498.99	5.0116E-03
499.19	5.0541E-03
499.39	5.0792E-03
499.59	4.9653E-03
499.79	4.9852E-03
499.99	4.9903E-03
500.19	5.0585E-03
500.40	5.0565E-03
500.60	5.0530E-03
500.80	5.0994E-03
501.00	5.0155E-03
501.20	5.0488E-03
501.40	5.0960E-03
501.60	5.0791E-03
501.80	5.0786E-03
502.00	5.1550E-03
502.20	5.1439E-03
502.40	5.1679E-03
502.60	5.1256E-03
502.80	5.2992E-03
503.00	5.2827E-03
503.20	5.2567E-03
503.40	5.2517E-03
503.60	5.3068E-03
503.80	5.4026E-03
504.00	5.3780E-03
504.20	5.4663E-03
504.40	5.4743E-03
504.60	5.5569E-03
504.80	5.5873E-03
505.00	5.6017E-03
505.20	5.6878E-03
505.40	5.6808E-03
505.60	5.6790E-03
505.80	5.7367E-03
506.00	5.7646E-03
506.20	5.7688E-03
506.40	5.7925E-03
506.60	5.8224E-03
506.80	5.8063E-03
507.00	5.8951E-03
507.20	5.9523E-03
507.40	6.0289E-03
507.60	5.9838E-03
507.80	6.0555E-03
508.00	6.1021E-03
508.20	6.2041E-03
508.40	6.1857E-03
508.60	6.1597E-03
508.80	6.1417E-03
509.00	6.3481E-03
509.20	6.3090E-03
509.40	6.2999E-03
509.60	6.3650E-03
509.80	6.3604E-03
510.00	6.5018E-03
510.20	6.5097E-03
510.40	6.5580E-03
510.60	6.5296E-03
510.80	6.5267E-03
511.00	6.5478E-03
511.20	6.7033E-03
511.40	6.6361E-03
511.60	6.6703E-03
511.80	6.7198E-03
512.00	6.7416E-03
512.20	6.8030E-03
512.40	6.7684E-03
512.60	6.8123E-03
512.80	6.8342E-03
513.00	6.9111E-03
513.20	6.8866E-03
513.40	6.8547E-03
513.59	6.8347E-03
513.79	6.9344E-03
513.99	6.9026E-03
514.19	6.9262E-03
514.39	6.8908E-03
514.59	6.9780E-03
514.79	6.9299E-03
514.99	6.9414E-03
515.19	6.9884E-03
515.39	7.0226E-03
515.59	7.0445E-03
515.79	6.9469E-03
515.99	7.1198E-03
516.19	7.1195E-03
516.39	7.1112E-03
516.59	7.1624E-03
516.79	7.2657E-03
516.98	7.1775E-03
517.18	7.3350E-03
517.38	7.3636E-03
517.58	7.4250E-03
517.78	7.4815E-03
517.98	7.5422E-03
518.18	7.6397E-03
518.38	7.8447E-03
518.58	7.8173E-03
518.78	7.8700E-03
518.98	7.9388E-03
519.18	8.0512E-03
519.38	8.1870E-03
519.57	8.2245E-03
519.77	8.2328E-03
519.97	8.3868E-03
520.17	8.4189E-03
520.37	8.4775E-03
520.57	8.6056E-03
520.77	8.6838E-03
520.97	8.7320E-03
521.17	8.7658E-03
521.37	8.8969E-03
521.57	9.0119E-03
521.76	8.9866E-03
521.96	9.1094E-03
522.16	9.1395E-03
522.36	9.2901E-03
522.56	9.1780E-03
522.76	9.2741E-03
522.96	9.4021E-03
523.16	9.3785E-03
523.36	9.4739E-03
523.55	9.4196E-03
523.75	9.4820E-03
523.95	9.5169E-03
524.15	9.4929E-03
524.35	9.5712E-03
524.55	9.6202E-03
524.75	9.7023E-03
524.95	9.7665E-03
525.14	9.7511E-03
525.34	9.7588E-03
525.54	9.7273E-03
525.74	9.8304E-03
525.94	9.8811E-03
526.14	9.9912E-03
526.34	1.0012E-02
526.54	1.0130E-02
526.73	1.0063E-02
526.93	1.0241E-02
527.13	1.0307E-02
527.33	1.0380E-02
527.53	1.0494E-02
527.73	1.0495E-02
527.93	1.0627E-02
528.12	1.0594E-02
528.32	1.0701E-02
528.52	1.0873E-02
528.72	1.0964E-02
528.92	1.0941E-02
529.12	1.0993E-02
529.32	1.1069E-02
529.51	1.1155E-02
529.71	1.1210E-02
529.91	1.1227E-02
530.11	1.1314E-02
530.31	1.1419E-02
530.51	1.1340E-02
530.70	1.1346E-02
530.90	1.1448E-02
531.10	1.1424E-02
531.30	1.1504E-02
531.50	1.1512E-02
531.70	1.1570E-02
531.89	1.1522E-02
532.09	1.1569E-02
532.29	1.1579E-02
532.49	1.1724E-02
532.69	1.1708E-02
532.88	1.1715E-02
533.08	1.1683E-02
533.28	1.1780E-02
533.48	1.1914E-02
533.68	1.1882E-02
533.88	1.2027E-02
534.07	1.2036E-02
534.27	1.2052E-02
534.47	1.2135E-02
534.67	1.2024E-02
534.87	1.2188E-02
535.06	1.2210E-02
535.26	1.2191E-02
535.46	1.2178E-02
535.66	1.2396E-02
535.86	1.2271E-02
536.05	1.2278E-02
536.25	1.2331E-02
536.45	1.2366E-02
536.65	1.2355E-02
536.85	1.2312E-02
537.04	1.2385E-02
537.24	1.2490E-02
537.44	1.2300E-02
537.64	1.2265E-02
537.83	1.2438E-02
538.03	1.2468E-02
538.23	1.2552E-02
538.43	1.2556E-02
538.63	1.2456E-02
538.82	1.2520E-02
539.02	1.2529E-02
539.22	1.2618E-02
539.42	1.2538E-02
539.61	1.2623E-02
539.81	1.2649E-02
540.01	1.2593E-02
540.21	1.2669E-02
540.41	1.2664E-02
540.60	1.2714E-02
540.80	1.2745E-02
541.00	1.2783E-02
541.20	1.2890E-02
541.39	1.2908E-02
541.59	1.2911E-02
541.79	1.2953E-02
541.99	1.3068E-02
542.18	1.3033E-02
542.38	1.3055E-02
542.58	1.3075E-02
542.78	1.3167E-02
542.97	1.3096E-02
543.17	1.3240E-02
543.37	1.3183E-02
543.57	1.3331E-02
543.76	1.3451E-02
543.96	1.3420E-02
544.16	1.3337E-02
544.36	1.3412E-02
544.55	1.3560E-02
544.75	1.3514E-02
544.95	1.3588E-02
545.14	1.3411E-02
545.34	1.3633E-02
545.54	1.3547E-02
545.74	1.3613E-02
545.93	1.3719E-02
546.13	1.3706E-02
546.33	1.3649E-02
546.53	1.3640E-02
546.72	1.3799E-02
546.92	1.3818E-02
547.12	1.3767E-02
547.31	1.3852E-02
547.51	1.3823E-02
547.71	1.3942E-02
547.91	1.3943E-02
548.10	1.3805E-02
548.30	1.3891E-02
548.50	1.4078E-02
548.69	1.4055E-02
548.89	1.4033E-02
549.09	1.4065E-02
549.29	1.4041E-02
549.48	1.4280E-02
549.68	1.4062E-02
549.88	1.4214E-02
550.07	1.4266E-02
550.27	1.4263E-02
550.47	1.3856E-02
550.66	1.4442E-02
550.86	1.4219E-02
551.06	1.4469E-02
551.25	1.4311E-02
551.45	1.4475E-02
551.65	1.4499E-02
551.85	1.4614E-02
552.04	1.4368E-02
552.24	1.4546E-02
552.44	1.4480E-02
552.63	1.4470E-02
552.83	1.4569E-02
553.03	1.4458E-02
553.22	1.4686E-02
553.42	1.4554E-02
553.62	1.4750E-02
553.81	1.4591E-02
554.01	1.4701E-02
554.21	1.4571E-02
554.40	1.4663E-02
554.60	1.4611E-02
554.80	1.4669E-02
554.99	1.4654E-02
555.19	1.4627E-02
555.39	1.4679E-02
555.58	1.4572E-02
555.78	1.4597E-02
555.98	1.4521E-02
556.17	1.4527E-02
556.37	1.4550E-02
556.56	1.4550E-02
556.76	1.4536E-02
556.96	1.4459E-02
557.15	1.4519E-02
557.35	1.4474E-02
557.55	1.4457E-02
557.74	1.4418E-02
557.94	1.4495E-02
558.14	1.4538E-02
558.33	1.4390E-02
558.53	1.4383E-02
558.73	1.4463E-02
558.92	1.4345E-02
559.12	1.4548E-02
559.31	1.4569E-02
559.51	1.4618E-02
559.71	1.4494E-02
559.90	1.4581E-02
560.10	1.4577E-02
560.30	1.4552E-02
560.49	1.4505E-02
560.69	1.4595E-02
560.88	1.4678E-02
561.08	1.4461E-02
561.28	1.4486E-02
561.47	1.4584E-02
561.67	1.4598E-02
561.86	1.4511E-02
562.06	1.4555E-02
562.26	1.4621E-02
562.45	1.4537E-02
562.65	1.4591E-02
562.84	1.4430E-02
563.04	1.4502E-02
563.24	1.4480E-02
563.43	1.4597E-02
563.63	1.4597E-02
563.82	1.4506E-02
564.02	1.4585E-02
564.22	1.4622E-02
564.41	1.4454E-02
564.61	1.4527E-02
564.80	1.4541E-02
565.00	1.4432E-02
565.20	1.4567E-02
565.39	1.4365E-02
565.59	1.4287E-02
565.78	1.4414E-02
565.98	1.4265E-02
566.18	1.4462E-02
566.37	1.4356E-02
566.57	1.4272E-02
566.76	1.4205E-02
566.96	1.4339E-02
567.15	1.4187E-02
567.35	1.4353E-02
567.55	1.4225E-02
567.74	1.4215E-02
567.94	1.4099E-02
568.13	1.4157E-02
568.33	1.4243E-02
568.52	1.4191E-02
568.72	1.4069E-02
568.91	1.4034E-02
569.11	1.4047E-02
569.31	1.4172E-02
569.50	1.3984E-02
569.70	1.4073E-02
569.89	1.4016E-02
570.09	1.3969E-02
570.28	1.3921E-02
570.48	1.3986E-02
570.67	1.4113E-02
570.87	1.3913E-02
571.07	1.3913E-02
571.26	1.4033E-02
571.46	1.3993E-02
571.65	1.4030E-02
571.85	1.4077E-02
572.04	1.4009E-02
572.24	1.4141E-02
572.43	1.3960E-02
572.63	1.4080E-02
572.82	1.3969E-02
573.02	1.4048E-02
573.21	1.3920E-02
573.41	1.3991E-02
573.60	1.4075E-02
573.80	1.4016E-02
573.99	1.3929E-02
574.19	1.4067E-02
574.38	1.3939E-02
574.58	1.3957E-02
574.78	1.3810E-02
574.97	1.3932E-02
575.17	1.3879E-02
575.36	1.3794E-02
575.56	1.3699E-02
575.75	1.3886E-02
575.95	1.3750E-02
576.14	1.3679E-02
576.34	1.3839E-02
576.53	1.3699E-02
576.73	1.3738E-02
576.92	1.3620E-02
577.12	1.3863E-02
577.31	1.3553E-02
577.51	1.3848E-02
577.70	1.3738E-02
577.90	1.3740E-02
578.09	1.3810E-02
578.29	1.3688E-02
578.48	1.3862E-02
578.68	1.3777E-02
578.87	1.3999E-02
579.06	1.3786E-02
579.26	1.3874E-02
579.45	1.3809E-02
579.65	1.4074E-02
579.84	1.3927E-02
580.04	1.4038E-02
580.23	1.4094E-02
580.43	1.3876E-02
580.62	1.4052E-02
580.82	1.4065E-02
581.01	1.4021E-02
581.21	1.3989E-02
581.40	1.3961E-02
581.60	1.4125E-02
581.79	1.4168E-02
581.99	1.4019E-02
582.18	1.4016E-02
582.37	1.4116E-02
582.57	1.4119E-02
582.76	1.4197E-02
582.96	1.4210E-02
583.15	1.4160E-02
583.35	1.4158E-02
583.54	1.4173E-02
583.74	1.4137E-02
583.93	1.4025E-02
584.12	1.3947E-02
584.32	1.4170E-02
584.51	1.4053E-02
584.71	1.3875E-02
584.90	1.3881E-02
585.10	1.3887E-02
585.29	1.3892E-02
585.49	1.3876E-02
585.68	1.3896E-02
585.87	1.3803E-02
586.07	1.3734E-02
586.26	1.3668E-02
586.46	1.3622E-02
586.65	1.3538E-02
586.85	1.3552E-02
587.04	1.3299E-02
587.23	1.3519E-02
587.43	1.3434E-02
587.62	1.3145E-02
587.82	1.3354E-02
588.01	1.3212E-02
588.20	1.3234E-02
588.40	1.3092E-02
588.59	1.3183E-02
588.79	1.3208E-02
588.98	1.3294E-02
589.18	1.3168E-02
589.37	1.3272E-02
589.56	1.3108E-02
589.76	1.3093E-02
589.95	1.3353E-02
590.15	1.3272E-02
590.34	1.3198E-02
590.53	1.3437E-02
590.73	1.3321E-02
590.92	1.3353E-02
591.11	1.3480E-02
591.31	1.3504E-02
591.50	1.3609E-02
591.70	1.3549E-02
591.89	1.3694E-02
592.08	1.3495E-02
592.28	1.3436E-02
592.47	1.3680E-02
592.67	1.3680E-02
592.86	1.3706E-02
593.05	1.3556E-02
593.25	1.3772E-02
593.44	1.3719E-02
593.63	1.3901E-02
593.83	1.3743E-02
594.02	1.3974E-02
594.22	1.3959E-02
594.41	1.4053E-02
594.60	1.3899E-02
594.80	1.3966E-02
594.99	1.3993E-02
595.18	1.4003E-02
595.38	1.3956E-02
595.57	1.4024E-02
595.76	1.4094E-02
595.96	1.4080E-02
596.15	1.3959E-02
596.34	1.4339E-02
596.54	1.4316E-02
596.73	1.4231E-02
596.93	1.4310E-02
597.12	1.4216E-02
597.31	1.4346E-02
597.51	1.4255E-02
597.70	1.4311E-02
597.89	1.4242E-02
598.09	1.4192E-02
598.28	1.4519E-02
598.47	1.4276E-02
598.67	1.4368E-02
598.86	1.4240E-02
599.05	1.4495E-02
599.25	1.4388E-02
599.44	1.4480E-02
599.63	1.4580E-02
599.83	1.4403E-02
600.02	1.4418E-02
600.21	1.4427E-02
600.41	1.4506E-02
600.60	1.4349E-02
600.79	1.4489E-02
600.98	1.4522E-02
601.18	1.4725E-02
601.37	1.4481E-02
601.56	1.4549E-02
601.76	1.4864E-02
601.95	1.4598E-02
602.14	1.4670E-02
602.34	1.4661E-02
602.53	1.4841E-02
602.72	1.4653E-02
602.92	1.4811E-02
603.11	1.4737E-02
603.30	1.4863E-02
603.49	1.4762E-02
603.69	1.4992E-02
603.88	1.4877E-02
604.07	1.4998E-02
604.27	1.4905E-02
604.46	1.4781E-02
604.65	1.4934E-02
604.84	1.4924E-02
605.04	1.5008E-02
605.23	1.4934E-02
605.42	1.4923E-02
605.62	1.4974E-02
605.81	1.4836E-02
606.00	1.4879E-02
606.19	1.4984E-02
606.39	1.4988E-02
606.58	1.4827E-02
606.77	1.4862E-02
606.97	1.4738E-02
607.16	1.4905E-02
607.35	1.4964E-02
607.54	1.4839E-02
607.74	1.4980E-02
607.93	1.4993E-02
608.12	1.4816E-02
608.31	1.4892E-02
608.51	1.4908E-02
608.70	1.4797E-02
608.89	1.4764E-02
609.08	1.4665E-02
609.28	1.4807E-02
609.47	1.4852E-02
609.66	1.4891E-02
609.85	1.4944E-02
610.05	1.4975E-02
610.24	1.4824E-02
610.43	1.4921E-02
610.62	1.4893E-02
610.82	1.4848E-02
611.01	1.4971E-02
611.20	1.4894E-02
611.39	1.4924E-02
611.59	1.4912E-02
611.78	1.4997E-02
611.97	1.4973E-02
612.16	1.5131E-02
612.35	1.4909E-02
612.55	1.4940E-02
612.74	1.5036E-02
612.93	1.5000E-02
613.12	1.4821E-02
613.32	1.4938E-02
613.51	1.4966E-02
613.70	1.4946E-02
613.89	1.4927E-02
614.08	1.4963E-02
614.28	1.4925E-02
614.47	1.4845E-02
614.66	1.4905E-02
614.85	1.5013E-02
615.04	1.4991E-02
615.24	1.5165E-02
615.43	1.4994E-02
615.62	1.4961E-02
615.81	1.5010E-02
616.00	1.4818E-02
616.20	1.5029E-02
616.39	1.5091E-02
616.58	1.5123E-02
616.77	1.5180E-02
616.96	1.5448E-02
617.16	1.5470E-02
617.35	1.5415E-02
617.54	1.5347E-02
617.73	1.5318E-02
617.92	1.5383E-02
618.12	1.5577E-02
618.31	1.5534E-02
618.50	1.5594E-02
618.69	1.5514E-02
618.88	1.5781E-02
619.07	1.5691E-02
619.27	1.5762E-02
619.46	1.5807E-02
619.65	1.5965E-02
619.84	1.5764E-02
620.03	1.5756E-02
620.22	1.5980E-02
620.42	1.5622E-02
620.61	1.6018E-02
620.80	1.5944E-02
620.99	1.5919E-02
621.18	1.6081E-02
621.37	1.5857E-02
621.57	1.5669E-02
621.76	1.5948E-02
621.95	1.5905E-02
622.14	1.5760E-02
622.33	1.5681E-02
622.52	1.5801E-02
622.71	1.5943E-02
622.91	1.6016E-02
623.10	1.5942E-02
623.29	1.5883E-02
623.48	1.5813E-02
623.67	1.5947E-02
623.86	1.5929E-02
624.05	1.5909E-02
624.25	1.5752E-02
624.44	1.5941E-02
624.63	1.6059E-02
624.82	1.5952E-02
625.01	1.5829E-02
625.20	1.6014E-02
625.39	1.5755E-02
625.58	1.5960E-02
625.78	1.6042E-02
625.97	1.5721E-02
626.16	1.5878E-02
626.35	1.5849E-02
626.54	1.6053E-02
626.73	1.6065E-02
626.92	1.5952E-02
627.11	1.5932E-02
627.31	1.5927E-02
627.50	1.5901E-02
627.69	1.6051E-02
627.88	1.6149E-02
628.07	1.5714E-02
628.26	1.5978E-02
628.45	1.5885E-02
628.64	1.5963E-02
628.83	1.5917E-02
629.02	1.5645E-02
629.22	1.6192E-02
629.41	1.5909E-02
629.60	1.5702E-02
629.79	1.6114E-02
629.98	1.5926E-02
630.17	1.6065E-02
630.36	1.6024E-02
630.55	1.6041E-02
630.74	1.6090E-02
630.93	1.6228E-02
631.12	1.5935E-02
631.31	1.6004E-02
631.51	1.6236E-02
631.70	1.6167E-02
631.89	1.5973E-02
632.08	1.6025E-02
632.27	1.6104E-02
632.46	1.6104E-02
632.65	1.6125E-02
632.84	1.5976E-02
633.03	1.6370E-02
633.22	1.6188E-02
633.41	1.6366E-02
633.60	1.6371E-02
633.79	1.6197E-02
633.98	1.5973E-02
634.17	1.6224E-02
634.37	1.6202E-02
634.56	1.6339E-02
634.75	1.6027E-02
634.94	1.6285E-02
635.13	1.6143E-02
635.32	1.6283E-02
635.51	1.6237E-02
635.70	1.6036E-02
635.89	1.6460E-02
636.08	1.6154E-02
636.27	1.6009E-02
636.46	1.6233E-02
636.65	1.6079E-02
636.84	1.5907E-02
637.03	1.6153E-02
637.22	1.6113E-02
637.41	1.5998E-02
637.60	1.6091E-02
637.79	1.6125E-02
637.98	1.6052E-02
638.17	1.6026E-02
638.36	1.5850E-02
638.55	1.5698E-02
638.74	1.5718E-02
638.93	1.5781E-02
639.12	1.5709E-02
639.31	1.5735E-02
639.50	1.5661E-02
639.69	1.5570E-02
639.88	1.5767E-02
640.07	1.5561E-02
640.26	1.5770E-02
640.45	1.5656E-02
640.64	1.5705E-02
640.83	1.5676E-02
641.02	1.5851E-02
641.21	1.5612E-02
641.40	1.5304E-02
641.59	1.5608E-02
641.78	1.5644E-02
641.97	1.5574E-02
642.16	1.5640E-02
642.35	1.5604E-02
642.54	1.5578E-02
642.73	1.5456E-02
642.92	1.5042E-02
643.11	1.5518E-02
643.30	1.5544E-02
643.49	1.5314E-02
643.68	1.5385E-02
643.87	1.5137E-02
644.06	1.5308E-02
644.25	1.5113E-02
644.44	1.5131E-02
644.63	1.5055E-02
644.82	1.5037E-02
645.01	1.5116E-02
645.20	1.5061E-02
645.39	1.4952E-02
645.58	1.4873E-02
645.77	1.4869E-02
645.96	1.5047E-02
646.15	1.4862E-02
646.34	1.4875E-02
646.53	1.4816E-02
646.72	1.4866E-02
646.91	1.4628E-02
647.10	1.5033E-02
647.29	1.4714E-02
647.47	1.4817E-02
647.66	1.4648E-02
647.85	1.4547E-02
648.04	1.4563E-02
648.23	1.4571E-02
648.42	1.4968E-02
648.61	1.4400E-02
648.80	1.4629E-02
648.99	1.4763E-02
649.18	1.4488E-02
649.37	1.4733E-02
649.56	1.4597E-02
649.75	1.4563E-02
649.94	1.4802E-02
650.13	1.4741E-02
650.31	1.4784E-02
650.50	1.4688E-02
650.69	1.4812E-02
650.88	1.4709E-02
651.07	1.4776E-02
651.26	1.4892E-02
651.45	1.5117E-02
651.64	1.4929E-02
651.83	1.4747E-02
652.02	1.4917E-02
652.21	1.4792E-02
652.40	1.4806E-02
652.58	1.5175E-02
652.77	1.4718E-02
652.96	1.4618E-02
653.15	1.4828E-02
653.34	1.4763E-02
653.53	1.4745E-02
653.72	1.4633E-02
653.91	1.4344E-02
654.10	1.4408E-02
654.29	1.4215E-02
654.47	1.4517E-02
654.66	1.3996E-02
654.85	1.4039E-02
655.04	1.3841E-02
655.23	1.4017E-02
655.42	1.3715E-02
655.61	1.3919E-02
655.80	1.3835E-02
655.98	1.4002E-02
656.17	1.3947E-02
656.36	1.4062E-02
656.55	1.3905E-02
656.74	1.4234E-02
656.93	1.4188E-02
657.12	1.4274E-02
657.31	1.4050E-02
657.49	1.4525E-02
657.68	1.4429E-02
657.87	1.4120E-02
658.06	1.4704E-02
658.25	1.4457E-02
658.44	1.4735E-02
658.63	1.4625E-02
658.81	1.4591E-02
659.00	1.4829E-02
659.19	1.4758E-02
659.38	1.5149E-02
659.57	1.5170E-02
659.76	1.4935E-02
659.95	1.5269E-02
660.13	1.4800E-02
660.32	1.5105E-02
660.51	1.5042E-02
660.70	1.5263E-02
660.89	1.5086E-02
661.08	1.5146E-02
661.26	1.5019E-02
661.45	1.5235E-02
661.64	1.5101E-02
661.83	1.5074E-02
662.02	1.5158E-02
662.21	1.5299E-02
662.39	1.5389E-02
662.58	1.5193E-02
662.77	1.5566E-02
662.96	1.5356E-02
663.15	1.5124E-02
663.33	1.5467E-02
663.52	1.5208E-02
663.71	1.5225E-02
663.90	1.5237E-02
664.09	1.5013E-02
664.28	1.5189E-02
664.46	1.5043E-02
664.65	1.5084E-02
664.84	1.4926E-02
665.03	1.5147E-02
665.22	1.5230E-02
665.40	1.5215E-02
665.59	1.5064E-02
665.78	1.5057E-02
665.97	1.5044E-02
666.16	1.5205E-02
666.34	1.5343E-02
666.53	1.5005E-02
666.72	1.5307E-02
666.91	1.5129E-02
667.09	1.5156E-02
667.28	1.5305E-02
667.47	1.5271E-02
667.66	1.5134E-02
667.85	1.5126E-02
668.03	1.4431E-02
668.22	1.5278E-02
668.41	1.5129E-02
668.60	1.4706E-02
668.78	1.5253E-02
668.97	1.5064E-02
669.16	1.4901E-02
669.35	1.5232E-02
669.54	1.4848E-02
669.72	1.5202E-02
669.91	1.5022E-02
670.10	1.5125E-02
670.29	1.5094E-02
670.47	1.5244E-02
670.66	1.5310E-02
670.85	1.5105E-02
671.04	1.4837E-02
671.22	1.4846E-02
671.41	1.5079E-02
671.60	1.5115E-02
671.79	1.5130E-02
671.97	1.4979E-02
672.16	1.5359E-02
672.35	1.5216E-02
672.54	1.5223E-02
672.72	1.5058E-02
672.91	1.4903E-02
673.10	1.5070E-02
673.28	1.4988E-02
673.47	1.5049E-02
673.66	1.5105E-02
673.85	1.5419E-02
674.03	1.5220E-02
674.22	1.5188E-02
674.41	1.5021E-02
674.60	1.5047E-02
674.78	1.4787E-02
674.97	1.4961E-02
675.16	1.5566E-02
675.34	1.5303E-02
675.53	1.5120E-02
675.72	1.4964E-02
675.91	1.5557E-02
676.09	1.5293E-02
676.28	1.5454E-02
676.47	1.5332E-02
676.65	1.5003E-02
676.84	1.5285E-02
677.03	1.5439E-02
677.22	1.5161E-02
677.40	1.5374E-02
677.59	1.5230E-02
677.78	1.5129E-02
677.96	1.5232E-02
678.15	1.5398E-02
678.34	1.5606E-02
678.52	1.5153E-02
678.71	1.5233E-02
678.90	1.5284E-02
679.08	1.5383E-02
679.27	1.5137E-02
679.46	1.5593E-02
679.64	1.5416E-02
679.83	1.5287E-02
680.02	1.5353E-02
680.21	1.4947E-02
680.39	1.5610E-02
680.58	1.5426E-02
680.77	1.5319E-02
680.95	1.5375E-02
681.14	1.5059E-02
681.33	1.5416E-02
681.51	1.5620E-02
681.70	1.5496E-02
681.89	1.5597E-02
682.07	1.5422E-02
682.26	1.5052E-02
682.44	1.5528E-02
682.63	1.5469E-02
682.82	1.5599E-02
683.00	1.4947E-02
683.19	1.5323E-02
683.38	1.5419E-02
683.56	1.5453E-02
683.75	1.5243E-02
683.94	1.4850E-02
684.12	1.4796E-02
684.31	1.5065E-02
684.50	1.5062E-02
684.68	1.4686E-02
684.87	1.4613E-02
685.05	1.4648E-02
685.24	1.4236E-02
685.43	1.4407E-02
685.61	1.4379E-02
685.80	1.4084E-02
685.99	1.4316E-02
686.17	1.3910E-02
686.36	1.4282E-02
686.54	1.4253E-02
686.73	1.4084E-02
686.92	1.4086E-02
687.10	1.3953E-02
687.29	1.4195E-02
687.48	1.3907E-02
687.66	1.4430E-02
687.85	1.4078E-02
688.03	1.4290E-02
688.22	1.4047E-02
688.41	1.4505E-02
688.59	1.4197E-02
688.78	1.4701E-02
688.96	1.4866E-02
689.15	1.5143E-02
689.34	1.4472E-02
689.52	1.5374E-02
689.71	1.5146E-02
689.89	1.5377E-02
690.08	1.5734E-02
690.27	1.5504E-02
690.45	1.5448E-02
690.64	1.5488E-02
690.82	1.5410E-02
691.01	1.5767E-02
691.19	1.5727E-02
691.38	1.5954E-02
691.57	1.6187E-02
691.75	1.5919E-02
691.94	1.6333E-02
692.12	1.6152E-02
692.31	1.6506E-02
692.50	1.6323E-02
692.68	1.6550E-02
692.87	1.6833E-02
693.05	1.6747E-02
693.24	1.6519E-02
693.42	1.6761E-02
693.61	1.7062E-02
693.79	1.7335E-02
693.98	1.7097E-02
694.17	1.7457E-02
694.35	1.7838E-02
694.54	1.7986E-02
694.72	1.7927E-02
694.91	1.8107E-02
695.09	1.8257E-02
695.28	1.8417E-02
695.46	1.8607E-02
695.65	1.8830E-02
695.83	1.9017E-02
696.02	1.9360E-02
696.21	1.9545E-02
696.39	1.9444E-02
696.58	1.9783E-02
696.76	1.9261E-02
696.95	1.9732E-02
697.13	1.9920E-02
697.32	2.0170E-02
697.50	2.0241E-02
697.69	2.0452E-02
697.87	2.0710E-02
698.06	2.0793E-02
698.24	2.0597E-02
698.43	2.0768E-02
698.61	2.1343E-02
698.80	2.1163E-02
698.98	2.1540E-02
699.17	2.0969E-02
699.35	2.1582E-02
699.54	2.1541E-02
699.72	2.1338E-02
699.91	2.2028E-02
700.09	2.2151E-02
700.28	2.2303E-02
700.46	2.2459E-02
700.65	2.2500E-02
700.83	2.2828E-02
701.02	2.3103E-02
701.20	2.2616E-02
701.39	2.3536E-02
701.57	2.3474E-02
701.76	2.3318E-02
701.94	2.3743E-02
702.13	2.4050E-02
702.31	2.3709E-02
702.50	2.4983E-02
702.68	2.4852E-02
702.87	2.5131E-02
703.05	2.5331E-02
703.24	2.5331E-02
703.42	2.4798E-02
703.61	2.5832E-02
703.79	2.6174E-02
703.98	2.5803E-02
704.16	2.6245E-02
704.35	2.6244E-02
704.53	2.6636E-02
704.72	2.6832E-02
704.90	2.7092E-02
705.08	2.6899E-02
705.27	2.7673E-02
705.45	2.7755E-02
705.64	2.8092E-02
705.82	2.8147E-02
706.01	2.8270E-02
706.19	2.8222E-02
706.38	2.8548E-02
706.56	2.9157E-02
706.75	2.9267E-02
706.93	2.9298E-02
707.11	2.9123E-02
707.30	2.9794E-02
707.48	2.9901E-02
707.67	2.9726E-02
707.85	3.0035E-02
708.04	3.0365E-02
708.22	3.0523E-02
708.40	3.0418E-02
708.59	3.0408E-02
708.77	3.1126E-02
708.96	3.1076E-02
709.14	3.1393E-02
709.33	3.1410E-02
709.51	3.1815E-02
709.69	3.1948E-02
709.88	3.2243E-02
710.06	3.2348E-02
710.25	3.2232E-02
710.43	3.2671E-02
710.62	3.3050E-02
710.80	3.2981E-02
710.98	3.3264E-02
711.17	3.3327E-02
711.35	3.3603E-02
711.54	3.3906E-02
711.72	3.3781E-02
711.90	3.4249E-02
712.09	3.4380E-02
712.27	3.4062E-02
712.46	3.4522E-02
712.64	3.4313E-02
712.82	3.4922E-02
713.01	3.4977E-02
713.19	3.4962E-02
713.37	3.4773E-02
713.56	3.4707E-02
713.74	3.5021E-02
713.93	3.4690E-02
714.11	3.4465E-02
714.29	3.4051E-02
714.48	3.4508E-02
714.66	3.4410E-02
714.85	3.4020E-02
715.03	3.3928E-02
715.21	3.3702E-02
715.40	3.3264E-02
715.58	3.3110E-02
715.76	3.2667E-02
715.95	3.2617E-02
716.13	3.2819E-02
716.31	3.2393E-02
716.50	3.2134E-02
716.68	3.1728E-02
716.87	3.1898E-02
717.05	3.1791E-02
717.23	3.1314E-02
717.42	3.1543E-02
717.60	3.1335E-02
717.78	3.1537E-02
717.97	3.1575E-02
718.15	3.1559E-02
718.33	3.1502E-02
718.52	3.1917E-02
718.70	3.2223E-02
718.88	3.2098E-02
719.07	3.3020E-02
719.25	3.2772E-02
719.43	3.3191E-02
719.62	3.3360E-02
719.80	3.3632E-02
719.98	3.4371E-02
720.17	3.4419E-02
720.35	3.4662E-02
720.53	3.5260E-02
720.72	3.5654E-02
720.90	3.5596E-02
721.08	3.5630E-02
721.27	3.5970E-02
721.45	3.6140E-02
721.63	3.6260E-02
721.82	3.6665E-02
722.00	3.6545E-02
722.18	3.6726E-02
722.36	3.7159E-02
722.55	3.7146E-02
722.73	3.7265E-02
722.91	3.7327E-02
723.10	3.7705E-02
723.28	3.7598E-02
723.46	3.7096E-02
723.65	3.7645E-02
723.83	3.7749E-02
724.01	3.7795E-02
724.19	3.8255E-02
724.38	3.8377E-02
724.56	3.8619E-02
724.74	3.8899E-02
724.93	3.8451E-02
725.11	3.8747E-02
725.29	3.9348E-02
725.47	3.9440E-02
725.66	3.9585E-02
725.84	3.9618E-02
726.02	3.9895E-02
726.21	4.0416E-02
726.39	4.0186E-02
726.57	4.0470E-02
726.75	4.0496E-02
726.94	4.1022E-02
727.12	4.0904E-02
727.30	4.1073E-02
727.48	4.1095E-02
727.67	4.1748E-02
727.85	4.1647E-02
728.03	4.2023E-02
728.21	4.2536E-02
728.40	4.2341E-02
728.58	4.3119E-02
728.76	4.3147E-02
728.94	4.3576E-02
729.13	4.4050E-02
729.31	4.3955E-02
729.49	4.4585E-02
729.67	4.4990E-02
729.86	4.5411E-02
730.04	4.5393E-02
730.22	4.6308E-02
730.40	4.6639E-02
730.59	4.7093E-02
730.77	4.7602E-02
730.95	4.8309E-02
731.13	4.8538E-02
731.31	4.9085E-02
731.50	4.9044E-02
731.68	5.0220E-02
731.86	5.0340E-02
732.04	5.0922E-02
732.23	5.1596E-02
732.41	5.1686E-02
732.59	5.2191E-02
732.77	5.2628E-02
732.95	5.2966E-02
733.14	5.3135E-02
733.32	5.3884E-02
733.50	5.3962E-02
733.68	5.4224E-02
733.86	5.4447E-02
734.05	5.4911E-02
734.23	5.5252E-02
734.41	5.4940E-02
734.59	5.5526E-02
734.77	5.5879E-02
734.96	5.5626E-02
735.14	5.6528E-02
735.32	5.6663E-02
735.50	5.6765E-02
735.68	5.7326E-02
735.87	5.7271E-02
736.05	5.7955E-02
736.23	5.7392E-02
736.41	5.8252E-02
736.59	5.8273E-02
736.77	5.8392E-02
736.96	5.8495E-02
737.14	5.8413E-02
737.32	5.9158E-02
737.50	5.9450E-02
737.68	5.9506E-02
737.87	5.9926E-02
738.05	6.0367E-02
738.23	5.9881E-02
738.41	6.0325E-02
738.59	6.0622E-02
738.77	6.0931E-02
738.95	6.1364E-02
739.14	6.1019E-02
739.32	6.1378E-02
739.50	6.2149E-02
739.68	6.1818E-02
739.86	6.2315E-02
740.04	6.2444E-02
740.23	6.2244E-02
740.41	6.3062E-02
740.59	6.3303E-02
740.77	6.3733E-02
740.95	6.3699E-02
741.13	6.3768E-02
741.31	6.3889E-02
741.50	6.4201E-02
741.68	6.4223E-02
741.86	6.4392E-02
742.04	6.5029E-02
742.22	6.5381E-02
742.40	6.5371E-02
742.58	6.5697E-02
742.76	6.5943E-02
742.95	6.5454E-02
743.13	6.6305E-02
743.31	6.6285E-02
743.49	6.6260E-02
743.67	6.6742E-02
743.85	6.6822E-02
744.03	6.6776E-02
744.21	6.7085E-02
744.39	6.6941E-02
744.58	6.7554E-02
744.76	6.7659E-02
744.94	6.8040E-02
745.12	6.7892E-02
745.30	6.7723E-02
745.48	6.8168E-02
745.66	6.8356E-02
745.84	6.7897E-02
746.02	6.8008E-02
746.20	6.8302E-02
746.38	6.8535E-02
746.57	6.8929E-02
746.75	6.8151E-02
746.93	6.8790E-02
747.11	6.8369E-02
747.29	6.8785E-02
747.47	6.9062E-02
747.65	6.8952E-02
747.83	6.8444E-02
748.01	6.8893E-02
748.19	6.8942E-02
748.37	6.8903E-02
748.55	6.8968E-02
748.73	6.8728E-02
748.92	6.9049E-02
749.10	6.8855E-02
749.28	6.9283E-02
749.46	6.8969E-02
749.64	6.8832E-02
749.82	6.9016E-02
750.00	6.9424E-02
750.18	6.9426E-02
750.36	6.9117E-02
750.54	6.9629E-02
750.72	6.9948E-02
750.90	7.0118E-02
751.08	6.9960E-02
751.26	7.0447E-02
751.44	7.0595E-02
751.62	7.0982E-02
751.80	7.0829E-02
751.98	7.1221E-02
752.16	7.1466E-02
752.34	7.1646E-02
752.52	7.1976E-02
752.71	7.1485E-02
752.89	7.1538E-02
753.07	7.2519E-02
753.25	7.2019E-02
753.43	7.2996E-02
753.61	7.2677E-02
753.79	7.3538E-02
753.97	7.3540E-02
754.15	7.3848E-02
754.33	7.4272E-02
754.51	7.4519E-02
754.69	7.4667E-02
754.87	7.4571E-02
755.05	7.4634E-02
755.23	7.4956E-02
755.41	7.5116E-02
755.59	7.3301E-02
755.77	7.4074E-02
755.95	7.3738E-02
756.13	7.2773E-02
756.31	7.2978E-02
756.49	7.2350E-02
756.67	7.1292E-02
756.85	7.0196E-02
757.03	6.8955E-02
757.21	6.7771E-02
757.39	6.6690E-02
757.57	6.5449E-02
757.75	6.3485E-02
757.93	6.1613E-02
758.11	6.0477E-02
758.29	5.9019E-02
758.47	5.7329E-02
758.65	5.6101E-02
758.83	5.5452E-02
759.01	5.3813E-02
759.18	5.2259E-02
759.36	5.0325E-02
759.54	4.9870E-02
759.72	4.8272E-02
759.90	4.7681E-02
760.08	4.6782E-02
760.26	4.6149E-02
760.44	4.5002E-02
760.62	4.4187E-02
760.80	4.3969E-02
760.98	4.4680E-02
761.16	4.4567E-02
761.34	4.4193E-02
761.52	4.4876E-02
761.70	4.4275E-02
761.88	4.4526E-02
762.06	4.4883E-02
762.24	4.5152E-02
762.42	4.5612E-02
762.60	4.6022E-02
762.78	4.6761E-02
762.95	4.7261E-02
763.13	4.8298E-02
763.31	4.9216E-02
763.49	4.9919E-02
763.67	5.1054E-02
763.85	5.1666E-02
764.03	5.3628E-02
764.21	5.4309E-02
764.39	5.5920E-02
764.57	5.7607E-02
764.75	5.8567E-02
764.93	6.0570E-02
765.11	6.0963E-02
765.28	6.2770E-02
765.46	6.3872E-02
765.64	6.4904E-02
765.82	6.6329E-02
766.00	6.7622E-02
766.18	6.8713E-02
766.36	6.9662E-02
766.54	7.0497E-02
766.72	7.1617E-02
766.90	7.3237E-02
767.07	7.3238E-02
767.25	7.4465E-02
767.43	7.5433E-02
767.61	7.6450E-02
767.79	7.7135E-02
767.97	7.7598E-02
768.15	7.7928E-02
768.33	7.8141E-02
768.51	7.9173E-02
768.68	7.9538E-02
768.86	7.9695E-02
769.04	8.0200E-02
769.22	8.1316E-02
769.40	8.1492E-02
769.58	8.1388E-02
769.76	8.2386E-02
769.94	8.2470E-02
770.11	8.2179E-02
770.29	8.2694E-02
770.47	8.2603E-02
770.65	8.2781E-02
770.83	8.2664E-02
771.01	8.3113E-02
771.19	8.3061E-02
771.36	8.2628E-02
771.54	8.3137E-02
771.72	8.2838E-02
771.90	8.2447E-02
772.08	8.3055E-02
772.26	8.3382E-02
772.44	8.2652E-02
772.61	8.3068E-02
772.79	8.2483E-02
772.97	8.3139E-02
773.15	8.3466E-02
773.33	8.2558E-02
773.51	8.3081E-02
773.68	8.2516E-02
773.86	8.2306E-02
774.04	8.2602E-02
774.22	8.2283E-02
774.40	8.2445E-02
774.58	8.2708E-02
774.75	8.2420E-02
774.93	8.1756E-02
775.11	8.2482E-02
775.29	8.1897E-02
775.47	8.1403E-02
775.64	8.2047E-02
775.82	8.1582E-02
776.00	8.1718E-02
776.18	8.1075E-02
776.36	8.1154E-02
776.53	8.1815E-02
776.71	8.0852E-02
776.89	8.0605E-02
777.07	8.0910E-02
777.25	8.0631E-02
777.42	8.0555E-02
777.60	8.0056E-02
777.78	8.0302E-02
777.96	7.9862E-02
778.14	8.0184E-02
778.31	7.9668E-02
778.49	7.9000E-02
778.67	7.9092E-02
778.85	7.9299E-02
779.03	7.9458E-02
779.20	7.9287E-02
779.38	7.9064E-02
779.56	7.8460E-02
779.74	7.8961E-02
779.91	7.8510E-02
780.09	7.8246E-02
780.27	7.7754E-02
780.45	7.7886E-02
780.62	7.8057E-02
780.80	7.8079E-02
780.98	7.7229E-02
781.16	7.6818E-02
781.34	7.7472E-02
781.51	7.7420E-02
781.69	7.7380E-02
781.87	7.7053E-02
782.05	7.6809E-02
782.22	7.6760E-02
782.40	7.6413E-02
782.58	7.6482E-02
782.76	7.5931E-02
782.93	7.6325E-02
783.11	7.6465E-02
783.29	7.5557E-02
783.47	7.5442E-02
783.64	7.5476E-02
783.82	7.4961E-02
784.00	7.4268E-02
784.17	7.4697E-02
784.35	7.4686E-02
784.53	7.4292E-02
784.71	7.4515E-02
784.88	7.3947E-02
785.06	7.4416E-02
785.24	7.3707E-02
785.42	7.3941E-02
785.59	7.3570E-02
785.77	7.2594E-02
785.95	7.2707E-02
786.12	7.1953E-02
786.30	7.2238E-02
786.48	7.1902E-02
786.65	7.1588E-02
786.83	7.1549E-02
787.01	7.1538E-02
787.19	7.1167E-02
787.36	7.1137E-02
787.54	7.0708E-02
787.72	7.0707E-02
787.89	7.0421E-02
788.07	7.0113E-02
788.25	6.9826E-02
788.42	6.9447E-02
788.60	6.9789E-02
788.78	6.9112E-02
788.96	6.9040E-02
789.13	6.8470E-02
789.31	6.8447E-02
789.49	6.8267E-02
789.66	6.8484E-02
789.84	6.7922E-02
790.02	6.7158E-02
790.19	6.7656E-02
790.37	6.7694E-02
790.55	6.7350E-02
790.72	6.7276E-02
790.90	6.7668E-02
791.08	6.6724E-02
791.25	6.6793E-02
791.43	6.6916E-02
791.61	6.6469E-02
791.78	6.6344E-02
791.96	6.5659E-02
792.14	6.6190E-02
792.31	6.6539E-02
792.49	6.5465E-02
792.67	6.6487E-02
792.84	6.5614E-02
793.02	6.5595E-02
793.19	6.5278E-02
793.37	6.5899E-02
793.55	6.5705E-02
793.72	6.5500E-02
793.90	6.4609E-02
794.08	6.4993E-02
794.25	6.4976E-02
794.43	6.4482E-02
794.61	6.4874E-02
794.78	6.4818E-02
794.96	6.4087E-02
795.13	6.4442E-02
795.31	6.4543E-02
795.49	6.3758E-02
795.66	6.4107E-02
795.84	6.3816E-02
796.01	6.3795E-02
796.19	6.3482E-02
796.37	6.3979E-02
796.54	6.3650E-02
796.72	6.3806E-02
796.90	6.3518E-02
797.07	6.2981E-02
797.25	6.3506E-02
797.42	6.3763E-02
797.60	6.3600E-02
797.78	6.3293E-02
797.95	6.2849E-02
798.13	6.2437E-02
798.30	6.2936E-02
798.48	6.2677E-02
798.66	6.3066E-02
798.83	6.2105E-02
799.01	6.2496E-02
799.18	6.2030E-02
799.36	6.2591E-02
799.53	6.1206E-02
799.71	6.2110E-02
799.89	6.1393E-02
800.06	6.1309E-02
800.24	6.1258E-02
800.41	6.0495E-02
800.59	6.1367E-02
800.76	6.0423E-02
800.94	6.0297E-02
801.12	6.0865E-02
801.29	6.0705E-02
801.47	6.0805E-02
801.64	5.9990E-02
801.82	6.0643E-02
801.99	6.0466E-02
802.17	6.0324E-02
802.34	6.0001E-02
802.52	5.9933E-02
802.70	6.0142E-02
802.87	5.9461E-02
803.05	5.9142E-02
803.22	6.0285E-02
803.40	5.9573E-02
803.57	5.9628E-02
803.75	6.0253E-02
803.92	5.9723E-02
804.10	5.8901E-02
804.27	5.8913E-02
804.45	5.9276E-02
804.63	5.9048E-02
804.80	5.8661E-02
804.98	5.9084E-02
805.15	5.8281E-02
805.33	5.9488E-02
805.50	5.9524E-02
805.68	5.9276E-02
805.85	5.9520E-02
806.03	5.9067E-02
806.20	5.9055E-02
806.38	5.7816E-02
806.55	5.8130E-02
806.73	5.9338E-02
806.90	5.8503E-02
807.08	5.8176E-02
807.25	5.7392E-02
807.43	5.7993E-02
807.60	5.8275E-02
807.78	5.7417E-02
807.95	5.6780E-02
808.13	5.7038E-02
808.30	5.6738E-02
808.48	5.7328E-02
808.65	5.6811E-02
808.83	5.7421E-02
809.00	5.6557E-02
809.18	5.7083E-02
809.35	5.5710E-02
809.53	5.6341E-02
809.70	5.5702E-02
809.88	5.5607E-02
810.05	5.5185E-02
810.23	5.5250E-02
810.40	5.4630E-02
810.57	5.4357E-02
810.75	5.3604E-02
810.92	5.3273E-02
811.10	5.3080E-02
811.27	5.2215E-02
811.45	5.2209E-02
811.62	5.1509E-02
811.80	5.0816E-02
811.97	5.1050E-02
812.15	5.0827E-02
812.32	5.0460E-02
812.50	4.9024E-02
812.67	5.0369E-02
812.84	4.8545E-02
813.02	4.8823E-02
813.19	4.8374E-02
813.37	4.8068E-02
813.54	4.7031E-02
813.72	4.7014E-02
813.89	4.6080E-02
814.07	4.6352E-02
814.24	4.6166E-02
814.41	4.5960E-02
814.59	4.4813E-02
814.76	4.4439E-02
814.94	4.4713E-02
815.11	4.4738E-02
815.29	4.2897E-02
815.46	4.3017E-02
815.63	4.3116E-02
815.81	4.2991E-02
815.98	4.1644E-02
816.16	4.1594E-02
816.33	4.2545E-02
816.50	4.2839E-02
816.68	4.2305E-02
816.85	4.1879E-02
817.03	4.2410E-02
817.20	4.2092E-02
817.37	4.2512E-02
817.55	4.2010E-02
817.72	4.2294E-02
817.90	4.1531E-02
818.07	4.2294E-02
818.24	4.1527E-02
818.42	4.1976E-02
818.59	4.1989E-02
818.77	4.2127E-02
818.94	4.3025E-02
819.11	4.2112E-02
819.29	4.3298E-02
819.46	4.3205E-02
819.64	4.2190E-02
819.81	4.3835E-02
819.98	4.3643E-02
820.16	4.2776E-02
820.33	4.3352E-02
820.50	4.3117E-02
820.68	4.2425E-02
820.85	4.3044E-02
821.02	4.2709E-02
821.20	4.2148E-02
821.37	4.2835E-02
821.55	4.1760E-02
821.72	4.2380E-02
821.89	4.2392E-02
822.07	4.3002E-02
822.24	4.2883E-02
822.41	4.1508E-02
822.59	4.3306E-02
822.76	4.3202E-02
822.93	4.2136E-02
823.11	4.2452E-02
823.28	4.2922E-02
823.45	4.2465E-02
823.63	4.2518E-02
823.80	4.3145E-02
823.97	4.1702E-02
824.15	4.3471E-02
824.32	4.2798E-02
824.49	4.4098E-02
824.67	4.2992E-02
824.84	4.3359E-02
825.01	4.3390E-02
825.19	4.3382E-02
825.36	4.3413E-02
825.53	4.4085E-02
825.71	4.3812E-02
825.88	4.3968E-02
826.05	4.3005E-02
826.23	4.3756E-02
826.40	4.3247E-02
826.57	4.3358E-02
826.75	4.3005E-02
826.92	4.2400E-02
827.09	4.2352E-02
827.26	4.3969E-02
827.44	4.3184E-02
827.61	4.3841E-02
827.78	4.3280E-02
827.96	4.1960E-02
828.13	4.3608E-02
828.30	4.3105E-02
828.48	4.2775E-02
828.65	4.2555E-02
828.82	4.2663E-02
828.99	4.2658E-02
829.17	4.2815E-02
829.34	4.1343E-02
829.51	4.2384E-02
829.68	4.3205E-02
829.86	4.2873E-02
830.03	4.2304E-02
830.20	4.2604E-02
830.38	4.2387E-02
830.55	4.1698E-02
830.72	4.2539E-02
830.89	4.1375E-02
831.07	4.1459E-02
831.24	4.1443E-02
831.41	4.1803E-02
831.58	4.2548E-02
831.76	4.3239E-02
831.93	4.2613E-02
832.10	4.2616E-02
832.27	4.1354E-02
832.45	4.1355E-02
832.62	4.2434E-02
832.79	4.1850E-02
832.96	4.2697E-02
833.14	4.1573E-02
833.31	4.3340E-02
833.48	4.2669E-02
833.65	4.2111E-02
833.83	4.3442E-02
834.00	4.3578E-02
834.17	4.2626E-02
834.34	4.3235E-02
834.51	4.2895E-02
834.69	4.2508E-02
834.86	4.3762E-02
835.03	4.3000E-02
835.20	4.3817E-02
835.38	4.3292E-02
835.55	4.3482E-02
835.72	4.3243E-02
835.89	4.5093E-02
836.06	4.3500E-02
836.24	4.3483E-02
836.41	4.2967E-02
836.58	4.4422E-02
836.75	4.4331E-02
836.92	4.4072E-02
837.10	4.3494E-02
837.27	4.4060E-02
837.44	4.3563E-02
837.61	4.5019E-02
837.78	4.3933E-02
837.96	4.4584E-02
838.13	4.4128E-02
838.30	4.4823E-02
838.47	4.4539E-02
838.64	4.4311E-02
838.82	4.4203E-02
838.99	4.5521E-02
839.16	4.4229E-02
839.33	4.4240E-02
839.50	4.5321E-02
839.67	4.4668E-02
839.85	4.3389E-02
840.02	4.4700E-02
840.19	4.4064E-02
840.36	4.5226E-02
840.53	4.3722E-02
840.70	4.3568E-02
840.88	4.4942E-02
841.05	4.5351E-02
841.22	4.4661E-02
841.39	4.4619E-02
841.56	4.4814E-02
841.73	4.4571E-02
841.91	4.5203E-02
842.08	4.5083E-02
842.25	4.4734E-02
842.42	4.4927E-02
842.59	4.4439E-02
842.76	4.5648E-02
842.93	4.4545E-02
843.11	4.4821E-02
843.28	4.4371E-02
843.45	4.4431E-02
843.62	4.3448E-02
843.79	4.3743E-02
843.96	4.5079E-02
844.13	4.4392E-02
844.30	4.4306E-02
844.48	4.5082E-02
844.65	4.3525E-02
844.82	4.2947E-02
844.99	4.3826E-02
845.16	4.3682E-02
845.33	4.3968E-02
845.50	4.3815E-02
845.67	4.2828E-02
845.84	4.3808E-02
846.02	4.3238E-02
846.19	4.3868E-02
846.36	4.3850E-02
846.53	4.4959E-02
846.70	4.4020E-02
846.87	4.2658E-02
847.04	4.4061E-02
847.21	4.3891E-02
847.38	4.3794E-02
847.55	4.3787E-02
847.73	4.2762E-02
847.90	4.3051E-02
848.07	4.2089E-02
848.24	4.2333E-02
848.41	4.1815E-02
848.58	4.4342E-02
848.75	4.2373E-02
848.92	4.3573E-02
849.09	4.2379E-02
849.26	4.1821E-02
849.43	4.1277E-02
849.60	4.1895E-02
849.77	4.2432E-02
849.94	3.9296E-02
850.12	4.2263E-02
850.29	4.1587E-02
850.46	4.1137E-02
850.63	4.0749E-02
850.80	4.1255E-02
850.97	4.1197E-02
851.14	3.9919E-02
851.31	3.9065E-02
851.48	4.0032E-02
851.65	4.0340E-02
851.82	4.1117E-02
851.99	4.0661E-02
852.16	3.8449E-02
852.33	3.9938E-02
852.50	3.9311E-02
852.67	3.9390E-02
852.84	3.9620E-02
853.01	3.8890E-02
853.18	3.9389E-02
853.35	3.8196E-02
853.52	4.0086E-02
853.69	3.8625E-02
853.86	3.7613E-02
854.03	3.7363E-02
854.21	3.8664E-02
854.38	3.8266E-02
854.55	3.8706E-02
854.72	3.8859E-02
854.89	3.7172E-02
855.06	3.6145E-02
855.23	3.7765E-02
855.40	3.8807E-02
855.57	3.6915E-02
855.74	3.7431E-02
855.91	3.7764E-02
856.08	3.6884E-02
856.25	3.7901E-02
856.42	3.7661E-02
856.59	3.7584E-02
856.76	3.8000E-02
856.93	3.7793E-02
857.10	3.7703E-02
857.27	3.9148E-02
857.44	3.8241E-02
857.61	3.8179E-02
857.77	3.7123E-02
857.94	3.7341E-02
858.11	3.7208E-02
858.28	3.9001E-02
858.45	3.7226E-02
858.62	3.8249E-02
858.79	3.7608E-02
858.96	3.7698E-02
859.13	3.7880E-02
859.30	3.8668E-02
859.47	3.7517E-02
859.64	3.6275E-02
859.81	3.8508E-02
859.98	3.8495E-02
860.15	3.7678E-02
860.32	3.7193E-02
860.49	3.9803E-02
860.66	3.8222E-02
860.83	3.8584E-02
861.00	3.8148E-02
861.17	3.8383E-02
861.34	3.8569E-02
861.51	3.6338E-02
861.68	3.8428E-02
861.84	3.7900E-02
862.01	3.6950E-02
862.18	3.7340E-02
862.35	3.8056E-02
862.52	3.8056E-02
862.69	3.7335E-02
862.86	3.7785E-02
863.03	3.8178E-02
863.20	3.7600E-02
863.37	3.7724E-02
863.54	3.6510E-02
863.71	3.6525E-02
863.88	3.6963E-02
864.05	3.6612E-02
864.21	3.7208E-02
864.38	3.5414E-02
864.55	3.4976E-02
864.72	3.7013E-02
864.89	3.5656E-02
865.06	3.6448E-02
865.23	3.5205E-02
865.40	3.4372E-02
865.57	3.6240E-02
865.74	3.5270E-02
865.90	3.5338E-02
866.07	3.5066E-02
866.24	3.3422E-02
866.41	3.2981E-02
866.58	3.3394E-02
866.75	3.3573E-02
866.92	3.3524E-02
867.09	3.3463E-02
867.26	3.3474E-02
867.42	3.2339E-02
867.59	3.1665E-02
867.76	3.3648E-02
867.93	3.2786E-02
868.10	3.3175E-02
868.27	3.1304E-02
868.44	3.3208E-02
868.60	3.3649E-02
868.77	3.3343E-02
868.94	3.2806E-02
869.11	3.2680E-02
869.28	3.3601E-02
869.45	3.1240E-02
869.62	3.3042E-02
869.78	3.2515E-02
869.95	3.1501E-02
870.12	3.2095E-02
870.29	3.2807E-02
870.46	3.3161E-02
870.63	3.2178E-02
870.80	3.1280E-02
870.96	3.2197E-02
871.13	3.1860E-02
871.30	3.3017E-02
871.47	3.3085E-02
871.64	3.3018E-02
871.81	3.0369E-02
871.97	3.3687E-02
872.14	3.1189E-02
872.31	3.0657E-02
872.48	3.1587E-02
872.65	3.2740E-02
872.81	3.1654E-02
872.98	3.3190E-02
873.15	3.2655E-02
873.32	3.2533E-02
873.49	3.1652E-02
873.66	3.2322E-02
873.82	3.1517E-02
873.99	3.0797E-02
874.16	3.1741E-02
874.33	3.0883E-02
874.50	3.1843E-02
874.66	3.0982E-02
874.83	3.1103E-02
875.00	3.0727E-02
875.17	2.8832E-02
875.34	3.1281E-02
875.50	3.0045E-02
875.67	2.9651E-02
875.84	3.0080E-02
876.01	2.9512E-02
876.17	2.8959E-02
876.34	2.9000E-02
876.51	3.1143E-02
876.68	3.0424E-02
876.85	3.0008E-02
877.01	3.0504E-02
877.18	2.9320E-02
877.35	2.9854E-02
877.52	2.9663E-02
877.68	3.0286E-02
877.85	2.9228E-02
878.02	2.9654E-02
878.19	2.9191E-02
878.35	2.9523E-02
878.52	2.9349E-02
878.69	2.9606E-02
878.86	2.8195E-02
879.02	2.8828E-02
879.19	2.7643E-02
879.36	2.8222E-02
879.53	2.6759E-02
879.69	2.8049E-02
879.86	2.9436E-02
880.03	2.9104E-02
880.20	2.7809E-02
880.36	2.9295E-02
880.53	2.7391E-02
880.70	2.9284E-02
880.87	2.7743E-02
881.03	2.7655E-02
881.20	2.6020E-02
881.37	2.7387E-02
881.54	2.7859E-02
881.70	2.8615E-02
881.87	2.7051E-02
882.04	2.7054E-02
882.20	2.7192E-02
882.37	2.5889E-02
882.54	2.7594E-02
882.71	2.7452E-02
882.87	2.8378E-02
883.04	2.6775E-02
883.21	2.6782E-02
883.37	2.6316E-02
883.54	2.6830E-02
883.71	2.6334E-02
883.87	2.5518E-02
884.04	2.7537E-02
884.21	2.6091E-02
884.38	2.5550E-02
884.54	2.7761E-02
884.71	2.7746E-02
884.88	2.6093E-02
885.04	2.6480E-02
885.21	2.5560E-02
885.38	2.5456E-02
885.54	2.7767E-02
885.71	2.5386E-02
885.88	2.5991E-02
886.04	2.5609E-02
886.21	2.5555E-02
886.38	2.4878E-02
886.54	2.5007E-02
886.71	2.3982E-02
886.88	2.5979E-02
887.04	2.3399E-02
887.21	2.4354E-02
887.38	2.5602E-02
887.54	2.2346E-02
887.71	2.4609E-02
887.88	2.3105E-02
888.04	2.5134E-02
888.21	2.3726E-02
888.38	2.3093E-02
888.54	2.6241E-02
888.71	2.5748E-02
888.87	2.3266E-02
889.04	2.3266E-02
>>>>>End Processed Spectral Data<<<<<
