SpectraSuite Data File
++++++++++++++++++++++++++++++++++++
Date: Wed Jul 25 10:44:07 HST 2007
User: guest
Dark Spectrum Present: Yes
Reference Spectrum Present: No
Number of Sampled Component Spectra: 1
Spectrometers: USB4E01242
Integration Time (usec): 100000 (USB4E01242)
Spectra Averaged: 1 (USB4E01242)
Boxcar Smoothing: 10 (USB4E01242)
Correct for Electrical Dark: No (USB4E01242)
Strobe/Lamp Enabled: No (USB4E01242)
Correct for Detector Non-linearity: No (USB4E01242)
Correct for Stray Light: No (USB4E01242)
Number of Pixels in Processed Spectrum: 3648
>>>>>Begin Processed Spectral Data<<<<<
177.33	0.0000E00
177.55	0.0000E00
177.77	0.0000E00
177.99	-0.0000E00
178.21	0.0000E00
178.43	-0.0000E00
178.64	-0.0000E00
178.86	-0.0000E00
179.08	-0.0000E00
179.30	-0.0000E00
179.52	-0.0000E00
179.74	-0.0000E00
179.96	-0.0000E00
180.18	-0.0000E00
180.39	-0.0000E00
180.61	-0.0000E00
180.83	-0.0000E00
181.05	-0.0000E00
181.27	-0.0000E00
181.49	-0.0000E00
181.71	-0.0000E00
181.92	-0.0000E00
182.14	-0.0000E00
182.36	-0.0000E00
182.58	-0.0000E00
182.80	-0.0000E00
183.02	0.0000E00
183.23	-0.0000E00
183.45	-0.0000E00
183.67	-0.0000E00
183.89	-0.0000E00
184.11	0.0000E00
184.33	-0.0000E00
184.55	-0.0000E00
184.76	0.0000E00
184.98	-0.0000E00
185.20	-0.0000E00
185.42	-0.0000E00
185.64	-0.0000E00
185.86	0.0000E00
186.07	-0.0000E00
186.29	-0.0000E00
186.51	-0.0000E00
186.73	-0.0000E00
186.95	-0.0000E00
187.17	-0.0000E00
187.38	-0.0000E00
187.60	-0.0000E00
187.82	-0.0000E00
188.04	-0.0000E00
188.26	-0.0000E00
188.47	-0.0000E00
188.69	-0.0000E00
188.91	-0.0000E00
189.13	-0.0000E00
189.35	-0.0000E00
189.57	-0.0000E00
189.78	0.0000E00
190.00	-0.0000E00
190.22	-0.0000E00
190.44	-0.0000E00
190.66	-0.0000E00
190.87	-0.0000E00
191.09	-0.0000E00
191.31	-0.0000E00
191.53	-0.0000E00
191.75	-0.0000E00
191.97	-0.0000E00
192.18	-0.0000E00
192.40	0.0000E00
192.62	-0.0000E00
192.84	-0.0000E00
193.06	-0.0000E00
193.27	-0.0000E00
193.49	-0.0000E00
193.71	-0.0000E00
193.93	-0.0000E00
194.15	-0.0000E00
194.36	-0.0000E00
194.58	-0.0000E00
194.80	-0.0000E00
195.02	-0.0000E00
195.23	-0.0000E00
195.45	-0.0000E00
195.67	-0.0000E00
195.89	-0.0000E00
196.11	-0.0000E00
196.32	-0.0000E00
196.54	-0.0000E00
196.76	-0.0000E00
196.98	-0.0000E00
197.20	-0.0000E00
197.41	-0.0000E00
197.63	-0.0000E00
197.85	-0.0000E00
198.07	-0.0000E00
198.28	-0.0000E00
198.50	-0.0000E00
198.72	-0.0000E00
198.94	-0.0000E00
199.16	-0.0000E00
199.37	-0.0000E00
199.59	-0.0000E00
199.81	-0.0000E00
200.03	0.0000E00
200.24	0.0000E00
200.46	-0.0000E00
200.68	-0.0000E00
200.90	-0.0000E00
201.11	-0.0000E00
201.33	-0.0000E00
201.55	-0.0000E00
201.77	-0.0000E00
201.98	-0.0000E00
202.20	-0.0000E00
202.42	-0.0000E00
202.64	-0.0000E00
202.86	-0.0000E00
203.07	-0.0000E00
203.29	-0.0000E00
203.51	-0.0000E00
203.73	-0.0000E00
203.94	-0.0000E00
204.16	-0.0000E00
204.38	0.0000E00
204.60	-0.0000E00
204.81	0.0000E00
205.03	-0.0000E00
205.25	-0.0000E00
205.46	0.0000E00
205.68	-0.0000E00
205.90	-0.0000E00
206.12	-0.0000E00
206.33	-0.0000E00
206.55	0.0000E00
206.77	-0.0000E00
206.99	-0.0000E00
207.20	-0.0000E00
207.42	-0.0000E00
207.64	-0.0000E00
207.86	-0.0000E00
208.07	-0.0000E00
208.29	-0.0000E00
208.51	-0.0000E00
208.72	-0.0000E00
208.94	-0.0000E00
209.16	0.0000E00
209.38	-0.0000E00
209.59	-0.0000E00
209.81	-0.0000E00
210.03	-0.0000E00
210.25	-0.0000E00
210.46	-0.0000E00
210.68	-0.0000E00
210.90	-0.0000E00
211.11	-0.0000E00
211.33	-0.0000E00
211.55	-0.0000E00
211.77	-0.0000E00
211.98	0.0000E00
212.20	-0.0000E00
212.42	-0.0000E00
212.63	-0.0000E00
212.85	-0.0000E00
213.07	-0.0000E00
213.29	0.0000E00
213.50	-0.0000E00
213.72	-0.0000E00
213.94	-0.0000E00
214.15	-0.0000E00
214.37	-0.0000E00
214.59	-0.0000E00
214.80	-0.0000E00
215.02	-0.0000E00
215.24	-0.0000E00
215.45	-0.0000E00
215.67	-0.0000E00
215.89	-0.0000E00
216.11	-0.0000E00
216.32	-0.0000E00
216.54	-0.0000E00
216.76	-0.0000E00
216.97	-0.0000E00
217.19	-0.0000E00
217.41	-0.0000E00
217.62	-0.0000E00
217.84	-0.0000E00
218.06	-0.0000E00
218.27	-0.0000E00
218.49	0.0000E00
218.71	-0.0000E00
218.92	-0.0000E00
219.14	-0.0000E00
219.36	-0.0000E00
219.57	-0.0000E00
219.79	-0.0000E00
220.01	-0.0000E00
220.22	-0.0000E00
220.44	-0.0000E00
220.66	-0.0000E00
220.88	-0.0000E00
221.09	-0.0000E00
221.31	-0.0000E00
221.53	-0.0000E00
221.74	-0.0000E00
221.96	-0.0000E00
222.17	-0.0000E00
222.39	-0.0000E00
222.61	-0.0000E00
222.82	0.0000E00
223.04	0.0000E00
223.26	-0.0000E00
223.47	-0.0000E00
223.69	-0.0000E00
223.91	-0.0000E00
224.12	0.0000E00
224.34	-0.0000E00
224.56	-0.0000E00
224.77	-0.0000E00
224.99	-0.0000E00
225.21	-0.0000E00
225.42	-0.0000E00
225.64	0.0000E00
225.86	-0.0000E00
226.07	-0.0000E00
226.29	-0.0000E00
226.50	0.0000E00
226.72	-0.0000E00
226.94	-0.0000E00
227.15	-0.0000E00
227.37	0.0000E00
227.59	-0.0000E00
227.80	-0.0000E00
228.02	-0.0000E00
228.24	-0.0000E00
228.45	-0.0000E00
228.67	-0.0000E00
228.88	0.0000E00
229.10	-0.0000E00
229.32	-0.0000E00
229.53	0.0000E00
229.75	-0.0000E00
229.97	-0.0000E00
230.18	-0.0000E00
230.40	-0.0000E00
230.61	-0.0000E00
230.83	-0.0000E00
231.05	-0.0000E00
231.26	0.0000E00
231.48	-0.0000E00
231.70	-0.0000E00
231.91	-0.0000E00
232.13	-0.0000E00
232.34	-0.0000E00
232.56	0.0000E00
232.78	-0.0000E00
232.99	0.0000E00
233.21	-0.0000E00
233.42	-0.0000E00
233.64	-0.0000E00
233.86	-0.0000E00
234.07	-0.0000E00
234.29	0.0000E00
234.50	-0.0000E00
234.72	-0.0000E00
234.94	-0.0000E00
235.15	-0.0000E00
235.37	-0.0000E00
235.58	-0.0000E00
235.80	-0.0000E00
236.02	0.0000E00
236.23	-0.0000E00
236.45	-0.0000E00
236.66	-0.0000E00
236.88	-0.0000E00
237.10	-0.0000E00
237.31	-0.0000E00
237.53	-0.0000E00
237.74	-0.0000E00
237.96	-0.0000E00
238.17	-0.0000E00
238.39	-0.0000E00
238.61	-0.0000E00
238.82	-0.0000E00
239.04	-0.0000E00
239.25	-0.0000E00
239.47	-0.0000E00
239.69	-0.0000E00
239.90	-0.0000E00
240.12	-0.0000E00
240.33	-0.0000E00
240.55	-0.0000E00
240.76	0.0000E00
240.98	-0.0000E00
241.20	-0.0000E00
241.41	-0.0000E00
241.63	-0.0000E00
241.84	-0.0000E00
242.06	-0.0000E00
242.27	-0.0000E00
242.49	-0.0000E00
242.70	-0.0000E00
242.92	0.0000E00
243.14	0.0000E00
243.35	-0.0000E00
243.57	-0.0000E00
243.78	-0.0000E00
244.00	0.0000E00
244.21	-0.0000E00
244.43	0.0000E00
244.64	-0.0000E00
244.86	-0.0000E00
245.08	-0.0000E00
245.29	-0.0000E00
245.51	-0.0000E00
245.72	-0.0000E00
245.94	-0.0000E00
246.15	-0.0000E00
246.37	-0.0000E00
246.58	-0.0000E00
246.80	-0.0000E00
247.01	-0.0000E00
247.23	-0.0000E00
247.45	-0.0000E00
247.66	-0.0000E00
247.88	-0.0000E00
248.09	-0.0000E00
248.31	-0.0000E00
248.52	-0.0000E00
248.74	-0.0000E00
248.95	0.0000E00
249.17	-0.0000E00
249.38	-0.0000E00
249.60	-0.0000E00
249.81	0.0000E00
250.03	0.0000E00
250.24	-0.0000E00
250.46	0.0000E00
250.67	-0.0000E00
250.89	-0.0000E00
251.10	-0.0000E00
251.32	-0.0000E00
251.53	-0.0000E00
251.75	-0.0000E00
251.97	-0.0000E00
252.18	-0.0000E00
252.40	-0.0000E00
252.61	0.0000E00
252.83	-0.0000E00
253.04	-0.0000E00
253.26	-0.0000E00
253.47	-0.0000E00
253.69	-0.0000E00
253.90	-0.0000E00
254.12	-0.0000E00
254.33	-0.0000E00
254.55	-0.0000E00
254.76	-0.0000E00
254.98	0.0000E00
255.19	-0.0000E00
255.41	-0.0000E00
255.62	-0.0000E00
255.84	-0.0000E00
256.05	-0.0000E00
256.27	-0.0000E00
256.48	-0.0000E00
256.70	-0.0000E00
256.91	-0.0000E00
257.13	-0.0000E00
257.34	-0.0000E00
257.55	-0.0000E00
257.77	-0.0000E00
257.98	-0.0000E00
258.20	-0.0000E00
258.41	0.0000E00
258.63	-0.0000E00
258.84	-0.0000E00
259.06	-0.0000E00
259.27	-0.0000E00
259.49	0.0000E00
259.70	0.0000E00
259.92	-0.0000E00
260.13	-0.0000E00
260.35	-0.0000E00
260.56	-0.0000E00
260.78	-0.0000E00
260.99	-0.0000E00
261.21	-0.0000E00
261.42	-0.0000E00
261.63	-0.0000E00
261.85	-0.0000E00
262.06	-0.0000E00
262.28	-0.0000E00
262.49	-0.0000E00
262.71	-0.0000E00
262.92	-0.0000E00
263.14	-0.0000E00
263.35	-0.0000E00
263.57	-0.0000E00
263.78	0.0000E00
264.00	-0.0000E00
264.21	-0.0000E00
264.42	-0.0000E00
264.64	-0.0000E00
264.85	-0.0000E00
265.07	-0.0000E00
265.28	-0.0000E00
265.50	-0.0000E00
265.71	-0.0000E00
265.93	-0.0000E00
266.14	-0.0000E00
266.35	0.0000E00
266.57	-0.0000E00
266.78	0.0000E00
267.00	-0.0000E00
267.21	-0.0000E00
267.43	-0.0000E00
267.64	-0.0000E00
267.85	-0.0000E00
268.07	-0.0000E00
268.28	-0.0000E00
268.50	-0.0000E00
268.71	0.0000E00
268.93	-0.0000E00
269.14	0.0000E00
269.35	-0.0000E00
269.57	0.0000E00
269.78	-0.0000E00
270.00	-0.0000E00
270.21	0.0000E00
270.43	-0.0000E00
270.64	0.0000E00
270.85	-0.0000E00
271.07	-0.0000E00
271.28	-0.0000E00
271.50	-0.0000E00
271.71	-0.0000E00
271.92	-0.0000E00
272.14	-0.0000E00
272.35	-0.0000E00
272.57	-0.0000E00
272.78	-0.0000E00
272.99	0.0000E00
273.21	-0.0000E00
273.42	-0.0000E00
273.64	-0.0000E00
273.85	-0.0000E00
274.07	-0.0000E00
274.28	-0.0000E00
274.49	-0.0000E00
274.71	-0.0000E00
274.92	-0.0000E00
275.13	-0.0000E00
275.35	-0.0000E00
275.56	-0.0000E00
275.78	-0.0000E00
275.99	-0.0000E00
276.20	-0.0000E00
276.42	-0.0000E00
276.63	-0.0000E00
276.85	-0.0000E00
277.06	-0.0000E00
277.27	-0.0000E00
277.49	-0.0000E00
277.70	-0.0000E00
277.92	-0.0000E00
278.13	-0.0000E00
278.34	0.0000E00
278.56	-0.0000E00
278.77	-0.0000E00
278.98	-0.0000E00
279.20	-0.0000E00
279.41	-0.0000E00
279.63	0.0000E00
279.84	-0.0000E00
280.05	-0.0000E00
280.27	-0.0000E00
280.48	-0.0000E00
280.69	-0.0000E00
280.91	-0.0000E00
281.12	-0.0000E00
281.33	-0.0000E00
281.55	-0.0000E00
281.76	-0.0000E00
281.98	-0.0000E00
282.19	-0.0000E00
282.40	0.0000E00
282.62	-0.0000E00
282.83	-0.0000E00
283.04	-0.0000E00
283.26	0.0000E00
283.47	-0.0000E00
283.68	-0.0000E00
283.90	-0.0000E00
284.11	-0.0000E00
284.32	-0.0000E00
284.54	-0.0000E00
284.75	-0.0000E00
284.96	-0.0000E00
285.18	-0.0000E00
285.39	-0.0000E00
285.60	-0.0000E00
285.82	-0.0000E00
286.03	-0.0000E00
286.24	-0.0000E00
286.46	0.0000E00
286.67	-0.0000E00
286.88	-0.0000E00
287.10	-0.0000E00
287.31	-0.0000E00
287.52	-0.0000E00
287.74	-0.0000E00
287.95	-0.0000E00
288.16	-0.0000E00
288.38	-0.0000E00
288.59	-0.0000E00
288.80	-0.0000E00
289.02	-0.0000E00
289.23	-0.0000E00
289.44	-0.0000E00
289.66	-0.0000E00
289.87	-0.0000E00
290.08	0.0000E00
290.30	-0.0000E00
290.51	-0.0000E00
290.72	-0.0000E00
290.94	0.0000E00
291.15	-0.0000E00
291.36	0.0000E00
291.57	0.0000E00
291.79	-0.0000E00
292.00	-0.0000E00
292.21	-0.0000E00
292.43	-0.0000E00
292.64	-0.0000E00
292.85	-0.0000E00
293.07	-0.0000E00
293.28	-0.0000E00
293.49	-0.0000E00
293.70	0.0000E00
293.92	-0.0000E00
294.13	-0.0000E00
294.34	0.0000E00
294.56	-0.0000E00
294.77	-0.0000E00
294.98	-0.0000E00
295.20	-0.0000E00
295.41	-0.0000E00
295.62	-0.0000E00
295.83	-0.0000E00
296.05	0.0000E00
296.26	-0.0000E00
296.47	0.0000E00
296.69	-0.0000E00
296.90	-0.0000E00
297.11	-0.0000E00
297.32	-0.0000E00
297.54	-0.0000E00
297.75	-0.0000E00
297.96	-0.0000E00
298.17	-0.0000E00
298.39	-0.0000E00
298.60	-0.0000E00
298.81	-0.0000E00
299.03	-0.0000E00
299.24	0.0000E00
299.45	-0.0000E00
299.66	0.0000E00
299.88	-0.0000E00
300.09	-7.3253E-05
300.30	-1.5840E-04
300.51	1.6359E-05
300.73	-1.3122E-04
300.94	-8.2149E-05
301.15	-1.5008E-05
301.36	-1.8647E-04
301.58	-1.1306E-04
301.79	1.1664E-04
302.00	-1.2504E-04
302.21	-1.3686E-04
302.43	5.9991E-06
302.64	-1.6816E-04
302.85	7.5925E-06
303.06	-1.9423E-04
303.28	-3.6124E-05
303.49	-1.8681E-04
303.70	5.8221E-05
303.91	-1.2716E-04
304.13	-2.0716E-04
304.34	-7.8112E-05
304.55	8.2295E-05
304.76	-2.3642E-04
304.98	-1.2807E-04
305.19	3.7901E-05
305.40	-1.9177E-04
305.61	-1.1585E-05
305.82	-1.4485E-04
306.04	2.0123E-05
306.25	-2.0044E-04
306.46	6.0681E-05
306.67	-1.2776E-04
306.89	-1.3501E-04
307.10	1.9714E-05
307.31	-1.7594E-05
307.52	-6.0893E-05
307.74	8.8081E-05
307.95	8.4565E-05
308.16	-2.2015E-04
308.37	-3.8272E-05
308.58	-9.1253E-05
308.80	4.6246E-05
309.01	-9.3712E-06
309.22	-2.1395E-04
309.43	-1.3105E-04
309.64	1.0060E-05
309.86	1.0975E-04
310.07	-4.6336E-05
310.28	2.7909E-06
310.49	2.7289E-05
310.70	-1.5129E-04
310.92	4.9131E-05
311.13	-4.1474E-05
311.34	-1.4191E-05
311.55	2.0609E-06
311.76	-1.6135E-05
311.98	1.3815E-04
312.19	-2.8542E-05
312.40	-1.2695E-04
312.61	-6.8578E-05
312.82	3.1496E-05
313.04	-1.0020E-04
313.25	3.3744E-05
313.46	-8.3062E-05
313.67	-7.0362E-05
313.88	-2.7825E-05
314.10	-7.0718E-05
314.31	-6.9533E-05
314.52	-6.6946E-05
314.73	-3.7393E-05
314.94	5.3059E-05
315.16	9.0957E-05
315.37	1.6429E-04
315.58	-6.0643E-05
315.79	6.3241E-05
316.00	9.4801E-05
316.21	1.4608E-04
316.43	-8.0821E-05
316.64	-8.8557E-06
316.85	-2.5975E-05
317.06	7.6858E-05
317.27	1.3421E-04
317.48	2.8477E-05
317.70	5.5383E-05
317.91	3.0822E-05
318.12	1.2203E-04
318.33	-6.1880E-06
318.54	2.9714E-05
318.75	7.5924E-05
318.97	1.5237E-04
319.18	8.1922E-05
319.39	4.8194E-05
319.60	6.0474E-05
319.81	1.3866E-04
320.02	4.2032E-05
320.24	4.4069E-05
320.45	9.3806E-05
320.66	-5.6569E-05
320.87	5.8156E-05
321.08	1.4715E-04
321.29	1.2279E-04
321.50	2.2342E-05
321.72	-5.8177E-06
321.93	1.5537E-04
322.14	6.7433E-05
322.35	1.5177E-04
322.56	1.8509E-04
322.77	2.3988E-04
322.98	1.0250E-04
323.20	2.1099E-04
323.41	2.6957E-05
323.62	6.0042E-06
323.83	1.0149E-04
324.04	1.6702E-05
324.25	1.2778E-05
324.46	8.6895E-05
324.67	1.0085E-04
324.89	6.4201E-05
325.10	5.2908E-05
325.31	2.0255E-04
325.52	1.5820E-04
325.73	5.2937E-05
325.94	1.0162E-04
326.15	-2.7295E-05
326.36	1.9663E-04
326.58	2.8531E-04
326.79	2.3160E-04
327.00	-6.1675E-05
327.21	1.9273E-04
327.42	1.7638E-04
327.63	1.8140E-04
327.84	1.6088E-04
328.05	2.6183E-04
328.26	-4.3428E-06
328.48	1.7791E-04
328.69	2.9921E-04
328.90	1.6337E-04
329.11	1.6528E-04
329.32	1.7132E-04
329.53	6.5243E-05
329.74	1.5427E-04
329.95	2.3428E-04
330.16	1.8076E-04
330.37	1.1909E-04
330.59	3.1270E-04
330.80	2.4726E-04
331.01	2.6102E-04
331.22	2.3631E-04
331.43	9.9812E-05
331.64	6.9971E-05
331.85	3.0343E-04
332.06	2.7282E-04
332.27	9.0185E-05
332.48	2.8550E-04
332.69	2.6373E-04
332.91	2.4180E-04
333.12	1.8985E-04
333.33	4.3723E-04
333.54	1.1684E-04
333.75	4.7467E-05
333.96	1.2706E-04
334.17	8.0698E-05
334.38	1.3904E-04
334.59	3.0624E-04
334.80	2.3699E-04
335.01	2.2486E-04
335.22	1.5322E-04
335.43	1.3886E-04
335.64	1.8917E-04
335.86	2.8343E-04
336.07	2.2966E-04
336.28	3.5545E-05
336.49	3.1119E-04
336.70	1.1673E-04
336.91	1.5046E-04
337.12	8.6460E-05
337.33	2.9093E-04
337.54	1.7493E-04
337.75	1.4134E-04
337.96	2.9366E-04
338.17	2.8328E-04
338.38	1.2931E-04
338.59	3.1653E-04
338.80	6.8296E-05
339.01	3.5821E-04
339.22	3.2304E-04
339.43	3.3367E-04
339.65	2.4787E-04
339.86	1.4733E-04
340.07	1.3967E-04
340.28	2.7886E-04
340.49	2.1448E-04
340.70	2.7957E-04
340.91	1.4007E-04
341.12	8.9814E-05
341.33	2.6057E-04
341.54	3.2775E-04
341.75	1.8732E-04
341.96	2.3942E-04
342.17	3.0266E-04
342.38	1.8643E-04
342.59	2.3367E-04
342.80	1.3816E-04
343.01	2.4700E-04
343.22	2.1303E-04
343.43	1.5147E-04
343.64	1.0647E-04
343.85	2.1438E-04
344.06	2.6323E-05
344.27	2.4188E-04
344.48	4.1633E-04
344.69	2.5878E-04
344.90	2.9385E-04
345.11	2.3982E-04
345.32	1.9872E-04
345.53	8.9180E-06
345.74	3.1628E-04
345.95	8.1715E-05
346.16	2.1779E-04
346.37	2.2554E-04
346.58	2.2853E-04
346.79	1.0144E-04
347.00	3.2645E-04
347.21	3.5380E-04
347.42	1.6796E-04
347.63	5.5027E-05
347.84	2.5023E-04
348.05	3.4323E-04
348.26	2.1499E-04
348.47	2.8050E-04
348.68	2.4712E-04
348.89	3.0783E-05
349.10	1.9639E-04
349.31	2.9275E-04
349.52	1.3226E-04
349.73	2.0281E-04
349.94	2.2279E-04
350.15	7.3036E-05
350.36	3.4782E-04
350.57	2.9768E-04
350.78	3.2989E-04
350.99	3.2463E-04
351.20	1.8853E-04
351.41	3.1804E-04
351.62	1.8035E-04
351.83	2.0801E-04
352.04	1.9675E-04
352.25	2.9472E-04
352.46	2.1231E-04
352.67	1.4068E-04
352.88	3.7347E-04
353.09	-2.6101E-05
353.30	1.7649E-04
353.51	2.3135E-04
353.72	3.9706E-04
353.93	1.8691E-04
354.14	1.1355E-04
354.35	3.6676E-04
354.56	2.2106E-04
354.77	4.8152E-04
354.98	9.1525E-05
355.19	2.3227E-04
355.39	2.4449E-04
355.60	2.0853E-04
355.81	3.0625E-04
356.02	3.9507E-04
356.23	1.2676E-04
356.44	7.8337E-05
356.65	3.7247E-04
356.86	2.1739E-04
357.07	1.8769E-04
357.28	3.5195E-04
357.49	2.7160E-04
357.70	3.5532E-04
357.91	1.1334E-04
358.12	1.0099E-04
358.33	2.8053E-04
358.54	3.3311E-04
358.75	2.1148E-04
358.96	3.1625E-04
359.16	4.7912E-05
359.37	3.8128E-04
359.58	2.5909E-04
359.79	1.7898E-04
360.00	2.0292E-04
360.21	2.3633E-04
360.42	1.7517E-04
360.63	5.1221E-04
360.84	3.9709E-04
361.05	5.8470E-05
361.26	2.3623E-04
361.47	4.2019E-04
361.68	2.3251E-04
361.88	3.0851E-04
362.09	1.9511E-04
362.30	3.3401E-04
362.51	2.3884E-04
362.72	4.3327E-04
362.93	2.8463E-04
363.14	3.3395E-04
363.35	2.5329E-04
363.56	2.0306E-04
363.77	4.0052E-04
363.98	3.5552E-04
364.18	4.9601E-04
364.39	4.2939E-04
364.60	3.4044E-04
364.81	3.8595E-04
365.02	3.8315E-04
365.23	4.2528E-04
365.44	4.0504E-04
365.65	3.5371E-04
365.86	1.6127E-04
366.07	4.6929E-04
366.27	3.7100E-04
366.48	4.4609E-04
366.69	3.7140E-04
366.90	4.5017E-04
367.11	4.0845E-04
367.32	4.2560E-04
367.53	3.4948E-04
367.74	2.6062E-04
367.95	2.5767E-04
368.15	3.4655E-04
368.36	4.1203E-04
368.57	1.7009E-04
368.78	4.9855E-04
368.99	3.1290E-04
369.20	2.7890E-04
369.41	4.7241E-04
369.62	3.6034E-04
369.82	5.3432E-04
370.03	3.4017E-04
370.24	4.6424E-04
370.45	3.4910E-04
370.66	2.4517E-04
370.87	2.6657E-04
371.08	3.0127E-04
371.28	3.1217E-04
371.49	3.2949E-04
371.70	3.0194E-04
371.91	3.0398E-04
372.12	2.1282E-04
372.33	2.4140E-04
372.54	3.3046E-04
372.74	3.2265E-04
372.95	1.0875E-04
373.16	3.7662E-04
373.37	3.9196E-04
373.58	1.2800E-04
373.79	3.5598E-04
374.00	2.5944E-04
374.20	4.6061E-04
374.41	4.2569E-04
374.62	2.8220E-04
374.83	2.7164E-04
375.04	3.1946E-04
375.25	3.4086E-04
375.45	4.7650E-05
375.66	3.6609E-04
375.87	3.2137E-04
376.08	4.3238E-04
376.29	4.0180E-04
376.50	3.5717E-04
376.70	2.8714E-04
376.91	3.9669E-04
377.12	4.0640E-04
377.33	1.9802E-04
377.54	2.5842E-04
377.75	4.3519E-04
377.95	3.0720E-04
378.16	3.4694E-04
378.37	2.3155E-04
378.58	4.2130E-04
378.79	1.7255E-04
379.00	4.6040E-04
379.20	2.8961E-04
379.41	3.9371E-04
379.62	4.3445E-04
379.83	3.3537E-04
380.04	3.7787E-04
380.24	3.2998E-04
380.45	1.7151E-04
380.66	2.4469E-04
380.87	3.3707E-04
381.08	3.6988E-04
381.28	2.1602E-04
381.49	3.4073E-04
381.70	2.1005E-04
381.91	2.6250E-04
382.12	3.5227E-04
382.32	2.3904E-04
382.53	3.6226E-04
382.74	1.7899E-04
382.95	2.5571E-04
383.16	3.1249E-04
383.36	5.9046E-05
383.57	2.8370E-04
383.78	3.5685E-04
383.99	1.8525E-04
384.20	2.3566E-04
384.40	2.5270E-04
384.61	3.8482E-04
384.82	4.2733E-04
385.03	3.2201E-04
385.23	3.5554E-04
385.44	3.3386E-04
385.65	4.1327E-04
385.86	2.2300E-04
386.07	5.6260E-04
386.27	1.3521E-04
386.48	2.8921E-04
386.69	3.8772E-04
386.90	1.4355E-05
387.10	2.2115E-04
387.31	3.7119E-04
387.52	2.2144E-04
387.73	3.1007E-04
387.94	4.0884E-04
388.14	1.4673E-04
388.35	2.4988E-04
388.56	5.6075E-04
388.77	3.8802E-04
388.97	4.1038E-04
389.18	5.0036E-04
389.39	3.2703E-04
389.60	3.9150E-04
389.80	5.3828E-04
390.01	4.7403E-04
390.22	4.5890E-04
390.43	2.5516E-04
390.63	3.2652E-04
390.84	3.1787E-04
391.05	5.4698E-04
391.26	3.6182E-04
391.46	3.2336E-04
391.67	3.2486E-04
391.88	1.4910E-04
392.09	1.5240E-04
392.29	3.7624E-04
392.50	2.0758E-04
392.71	2.9892E-04
392.92	3.4805E-04
393.12	3.2577E-04
393.33	4.2951E-04
393.54	2.6030E-04
393.74	1.5227E-04
393.95	2.3065E-04
394.16	4.1992E-04
394.37	2.7687E-04
394.57	2.7421E-04
394.78	3.8470E-04
394.99	3.1389E-04
395.19	2.6966E-04
395.40	2.5000E-04
395.61	2.4084E-04
395.82	4.0684E-04
396.02	2.6668E-04
396.23	3.9952E-04
396.44	4.3696E-04
396.65	2.9787E-04
396.85	4.8609E-04
397.06	4.0426E-04
397.27	4.4171E-04
397.47	5.2987E-04
397.68	4.2314E-04
397.89	3.4591E-04
398.09	3.0051E-04
398.30	4.0867E-04
398.51	2.8276E-04
398.72	4.1580E-04
398.92	5.6318E-04
399.13	5.5517E-04
399.34	6.7330E-04
399.54	6.8900E-04
399.75	6.1887E-04
399.96	4.5151E-04
400.16	4.5655E-04
400.37	6.1046E-04
400.58	5.8416E-04
400.78	6.4455E-04
400.99	5.2583E-04
401.20	7.0796E-04
401.41	6.5445E-04
401.61	4.9203E-04
401.82	6.3601E-04
402.03	5.2262E-04
402.23	5.1110E-04
402.44	6.8334E-04
402.65	5.7297E-04
402.85	5.9800E-04
403.06	5.9368E-04
403.27	6.3332E-04
403.47	6.2588E-04
403.68	5.3075E-04
403.89	6.7796E-04
404.09	5.7595E-04
404.30	4.5444E-04
404.51	6.6251E-04
404.71	6.4270E-04
404.92	7.2567E-04
405.13	4.0434E-04
405.33	5.0600E-04
405.54	5.2401E-04
405.75	5.9514E-04
405.95	5.6133E-04
406.16	3.3039E-04
406.37	5.4546E-04
406.57	5.5618E-04
406.78	6.1804E-04
406.99	5.8198E-04
407.19	6.4958E-04
407.40	7.0340E-04
407.60	6.4019E-04
407.81	6.1657E-04
408.02	4.6271E-04
408.22	4.8342E-04
408.43	6.5222E-04
408.64	5.7053E-04
408.84	5.5136E-04
409.05	3.7319E-04
409.26	6.4205E-04
409.46	6.5415E-04
409.67	5.3465E-04
409.87	6.2795E-04
410.08	5.5087E-04
410.29	7.4234E-04
410.49	4.4091E-04
410.70	6.4826E-04
410.91	5.7069E-04
411.11	7.1815E-04
411.32	6.1760E-04
411.52	4.5500E-04
411.73	7.0299E-04
411.94	6.6544E-04
412.14	7.3191E-04
412.35	5.9398E-04
412.56	7.4059E-04
412.76	7.2501E-04
412.97	5.8847E-04
413.17	6.9577E-04
413.38	8.0263E-04
413.59	6.0853E-04
413.79	6.5846E-04
414.00	7.3062E-04
414.20	7.8657E-04
414.41	5.5709E-04
414.62	7.3030E-04
414.82	6.1625E-04
415.03	4.9923E-04
415.23	7.1756E-04
415.44	5.3350E-04
415.65	6.8146E-04
415.85	5.4902E-04
416.06	7.2998E-04
416.26	6.7080E-04
416.47	6.9273E-04
416.68	7.8945E-04
416.88	8.3906E-04
417.09	4.3576E-04
417.29	6.5358E-04
417.50	7.2529E-04
417.71	6.7804E-04
417.91	6.3084E-04
418.12	6.0981E-04
418.32	7.5370E-04
418.53	7.4809E-04
418.73	5.8622E-04
418.94	6.1024E-04
419.15	5.7879E-04
419.35	7.7123E-04
419.56	6.8408E-04
419.76	4.9877E-04
419.97	8.2293E-04
420.17	6.6327E-04
420.38	4.3939E-04
420.59	7.4487E-04
420.79	7.9234E-04
421.00	6.1544E-04
421.20	4.4053E-04
421.41	6.1313E-04
421.61	5.6274E-04
421.82	6.6792E-04
422.02	6.0957E-04
422.23	3.5390E-04
422.44	7.6383E-04
422.64	5.3931E-04
422.85	5.9395E-04
423.05	6.1950E-04
423.26	6.4917E-04
423.46	6.2003E-04
423.67	5.4956E-04
423.87	5.7312E-04
424.08	5.2290E-04
424.29	5.3198E-04
424.49	6.9578E-04
424.70	4.4199E-04
424.90	6.5006E-04
425.11	6.7082E-04
425.31	6.2694E-04
425.52	7.0373E-04
425.72	5.5547E-04
425.93	6.1706E-04
426.13	5.3248E-04
426.34	5.6312E-04
426.54	5.9214E-04
426.75	6.1504E-04
426.95	6.3779E-04
427.16	6.6811E-04
427.36	6.3790E-04
427.57	5.1306E-04
427.78	5.1033E-04
427.98	5.1641E-04
428.19	5.9422E-04
428.39	4.8866E-04
428.60	5.1216E-04
428.80	5.2620E-04
429.01	6.3729E-04
429.21	3.8046E-04
429.42	7.2182E-04
429.62	6.8722E-04
429.83	5.6784E-04
430.03	4.4119E-04
430.24	6.5101E-04
430.44	4.7079E-04
430.65	6.0183E-04
430.85	6.2106E-04
431.06	4.7856E-04
431.26	6.3689E-04
431.47	3.9719E-04
431.67	7.5260E-04
431.88	6.3307E-04
432.08	6.7712E-04
432.29	6.8741E-04
432.49	5.4737E-04
432.70	5.4558E-04
432.90	7.5270E-04
433.11	6.9296E-04
433.31	4.2554E-04
433.52	6.3248E-04
433.72	5.4189E-04
433.93	6.0864E-04
434.13	5.9172E-04
434.34	7.8848E-04
434.54	5.2804E-04
434.74	6.0657E-04
434.95	6.4287E-04
435.15	6.0643E-04
435.36	6.6490E-04
435.56	5.4211E-04
435.77	6.8816E-04
435.97	5.3504E-04
436.18	9.1189E-04
436.38	7.3087E-04
436.59	6.0955E-04
436.79	7.7053E-04
437.00	7.3630E-04
437.20	6.3660E-04
437.41	6.0093E-04
437.61	7.1137E-04
437.81	6.7853E-04
438.02	6.5126E-04
438.22	7.1835E-04
438.43	5.4723E-04
438.63	8.2273E-04
438.84	6.2948E-04
439.04	6.3617E-04
439.25	6.8081E-04
439.45	5.5417E-04
439.66	5.7038E-04
439.86	6.0525E-04
440.06	8.1522E-04
440.27	5.9521E-04
440.47	4.8561E-04
440.68	7.3084E-04
440.88	6.4629E-04
441.09	7.5090E-04
441.29	7.4048E-04
441.49	7.0035E-04
441.70	8.4177E-04
441.90	7.1081E-04
442.11	7.8929E-04
442.31	8.6779E-04
442.52	7.3521E-04
442.72	6.8464E-04
442.92	6.0180E-04
443.13	7.8397E-04
443.33	5.5777E-04
443.54	7.0099E-04
443.74	6.9045E-04
443.95	8.0339E-04
444.15	7.1665E-04
444.35	8.2782E-04
444.56	7.0031E-04
444.76	6.1206E-04
444.97	9.5197E-04
445.17	8.2613E-04
445.37	9.8241E-04
445.58	6.9472E-04
445.78	7.6771E-04
445.99	6.2507E-04
446.19	6.2478E-04
446.39	6.5751E-04
446.60	5.6557E-04
446.80	5.8594E-04
447.01	7.4653E-04
447.21	8.7046E-04
447.41	6.2574E-04
447.62	8.1255E-04
447.82	7.1497E-04
448.03	7.9898E-04
448.23	7.5961E-04
448.43	7.7898E-04
448.64	8.4723E-04
448.84	8.0461E-04
449.05	7.2567E-04
449.25	8.3313E-04
449.45	6.9256E-04
449.66	7.4515E-04
449.86	7.5389E-04
450.07	6.3840E-04
450.27	7.7459E-04
450.47	6.8974E-04
450.68	7.8093E-04
450.88	6.8084E-04
451.08	7.4101E-04
451.29	7.6583E-04
451.49	8.0258E-04
451.70	7.7062E-04
451.90	8.4632E-04
452.10	8.0690E-04
452.31	6.3039E-04
452.51	8.1382E-04
452.71	7.7218E-04
452.92	7.4989E-04
453.12	8.5668E-04
453.32	7.6049E-04
453.53	5.4705E-04
453.73	5.8318E-04
453.93	6.0495E-04
454.14	8.2749E-04
454.34	7.8456E-04
454.55	8.2253E-04
454.75	7.8069E-04
454.95	6.3684E-04
455.16	9.1862E-04
455.36	6.9095E-04
455.56	9.2811E-04
455.77	8.7047E-04
455.97	8.0841E-04
456.17	7.0518E-04
456.38	8.1532E-04
456.58	9.2526E-04
456.78	7.5986E-04
456.99	6.0376E-04
457.19	7.5833E-04
457.39	7.4026E-04
457.60	7.9973E-04
457.80	7.5642E-04
458.00	7.1223E-04
458.21	8.7606E-04
458.41	8.5187E-04
458.61	7.4383E-04
458.82	7.3188E-04
459.02	6.6690E-04
459.22	9.3234E-04
459.43	8.7874E-04
459.63	8.1471E-04
459.83	7.0681E-04
460.03	8.0634E-04
460.24	8.6267E-04
460.44	7.2130E-04
460.64	6.4821E-04
460.85	8.3763E-04
461.05	7.8496E-04
461.25	8.0839E-04
461.46	7.3077E-04
461.66	6.5797E-04
461.86	7.8407E-04
462.07	8.6639E-04
462.27	7.9661E-04
462.47	9.0185E-04
462.67	7.6294E-04
462.88	8.5843E-04
463.08	6.3474E-04
463.28	7.7225E-04
463.49	8.7029E-04
463.69	8.0704E-04
463.89	8.0624E-04
464.09	8.3549E-04
464.30	7.4472E-04
464.50	8.8620E-04
464.70	8.8509E-04
464.91	6.5638E-04
465.11	6.8450E-04
465.31	6.9076E-04
465.51	8.1903E-04
465.72	7.8065E-04
465.92	7.6090E-04
466.12	6.5743E-04
466.33	8.0241E-04
466.53	7.7683E-04
466.73	7.3186E-04
466.93	8.3732E-04
467.14	6.9091E-04
467.34	1.0078E-03
467.54	8.5641E-04
467.74	8.3836E-04
467.95	8.0065E-04
468.15	7.3944E-04
468.35	8.5009E-04
468.55	9.1198E-04
468.76	8.7775E-04
468.96	6.5094E-04
469.16	7.9029E-04
469.37	7.7042E-04
469.57	8.1447E-04
469.77	7.0865E-04
469.97	7.8611E-04
470.18	8.6988E-04
470.38	8.8429E-04
470.58	7.9483E-04
470.78	8.5056E-04
470.99	8.3583E-04
471.19	7.2261E-04
471.39	8.0084E-04
471.59	6.3620E-04
471.79	7.3279E-04
472.00	7.7413E-04
472.20	8.2293E-04
472.40	6.9659E-04
472.60	7.3715E-04
472.81	9.1275E-04
473.01	8.6501E-04
473.21	7.3419E-04
473.41	5.7181E-04
473.62	8.2527E-04
473.82	8.9730E-04
474.02	7.5540E-04
474.22	7.6930E-04
474.42	9.4571E-04
474.63	8.2072E-04
474.83	7.6491E-04
475.03	7.7640E-04
475.23	8.3532E-04
475.44	7.8543E-04
475.64	7.6216E-04
475.84	8.1995E-04
476.04	7.5806E-04
476.24	8.0837E-04
476.45	8.2526E-04
476.65	7.3408E-04
476.85	7.1930E-04
477.05	8.2350E-04
477.25	8.7605E-04
477.46	7.9583E-04
477.66	7.6659E-04
477.86	8.5752E-04
478.06	8.0607E-04
478.26	8.3853E-04
478.47	7.9962E-04
478.67	9.9525E-04
478.87	7.8887E-04
479.07	7.0756E-04
479.27	8.3174E-04
479.47	8.6638E-04
479.68	8.4907E-04
479.88	8.6942E-04
480.08	8.3277E-04
480.28	8.6448E-04
480.48	8.3166E-04
480.69	8.9476E-04
480.89	7.8565E-04
481.09	8.2372E-04
481.29	9.4539E-04
481.49	6.4434E-04
481.69	8.6943E-04
481.90	8.2633E-04
482.10	8.5117E-04
482.30	9.0409E-04
482.50	8.8134E-04
482.70	8.0669E-04
482.90	8.2249E-04
483.11	8.3572E-04
483.31	8.4237E-04
483.51	6.8953E-04
483.71	7.3157E-04
483.91	7.7159E-04
484.11	7.9393E-04
484.32	7.8794E-04
484.52	8.4368E-04
484.72	8.2917E-04
484.92	7.9914E-04
485.12	7.8820E-04
485.32	7.7836E-04
485.52	7.5758E-04
485.73	6.8414E-04
485.93	6.7498E-04
486.13	6.9121E-04
486.33	7.2243E-04
486.53	7.7181E-04
486.73	7.9236E-04
486.93	7.3888E-04
487.14	8.6254E-04
487.34	8.3075E-04
487.54	8.2235E-04
487.74	8.6592E-04
487.94	6.8053E-04
488.14	8.1179E-04
488.34	8.0463E-04
488.54	7.8609E-04
488.75	7.6539E-04
488.95	7.9642E-04
489.15	7.7057E-04
489.35	7.3990E-04
489.55	7.6594E-04
489.75	8.1548E-04
489.95	7.7015E-04
490.15	7.7350E-04
490.36	8.2765E-04
490.56	7.7825E-04
490.76	8.6020E-04
490.96	8.1131E-04
491.16	8.4054E-04
491.36	8.0660E-04
491.56	7.9244E-04
491.76	6.6958E-04
491.96	7.9866E-04
492.17	7.7362E-04
492.37	8.2299E-04
492.57	8.6153E-04
492.77	8.6506E-04
492.97	9.1368E-04
493.17	8.6013E-04
493.37	8.4176E-04
493.57	8.1682E-04
493.77	7.9894E-04
493.97	9.1387E-04
494.17	8.1944E-04
494.38	8.5797E-04
494.58	8.0218E-04
494.78	8.0264E-04
494.98	7.9597E-04
495.18	8.5268E-04
495.38	8.3909E-04
495.58	8.7797E-04
495.78	8.8038E-04
495.98	9.1670E-04
496.18	8.9572E-04
496.38	8.2820E-04
496.58	7.4711E-04
496.78	8.9953E-04
496.99	7.9705E-04
497.19	8.6830E-04
497.39	9.0462E-04
497.59	8.4650E-04
497.79	7.6305E-04
497.99	8.5288E-04
498.19	8.6768E-04
498.39	8.8837E-04
498.59	7.9967E-04
498.79	7.9176E-04
498.99	7.9647E-04
499.19	8.5140E-04
499.39	8.5953E-04
499.59	7.9376E-04
499.79	7.9861E-04
499.99	7.9499E-04
500.19	8.7200E-04
500.40	8.1203E-04
500.60	8.6278E-04
500.80	8.6062E-04
501.00	8.1800E-04
501.20	8.0032E-04
501.40	8.9960E-04
501.60	8.3351E-04
501.80	8.3383E-04
502.00	8.8639E-04
502.20	8.4490E-04
502.40	8.5125E-04
502.60	7.7418E-04
502.80	9.4660E-04
503.00	8.9143E-04
503.20	8.3670E-04
503.40	8.0581E-04
503.60	8.5109E-04
503.80	9.3155E-04
504.00	8.8256E-04
504.20	9.5406E-04
504.40	9.3817E-04
504.60	9.8978E-04
504.80	9.8769E-04
505.00	9.6473E-04
505.20	1.0382E-03
505.40	9.9340E-04
505.60	9.6434E-04
505.80	1.0093E-03
506.00	1.0105E-03
506.20	9.9024E-04
506.40	9.9333E-04
506.60	9.9278E-04
506.80	9.4380E-04
507.00	1.0118E-03
507.20	1.0462E-03
507.40	1.0995E-03
507.60	1.0166E-03
507.80	1.0557E-03
508.00	1.0744E-03
508.20	1.1535E-03
508.40	1.0979E-03
508.60	1.0226E-03
508.80	9.7821E-04
509.00	1.1754E-03
509.20	1.1039E-03
509.40	1.0640E-03
509.60	1.1062E-03
509.80	1.0657E-03
510.00	1.1837E-03
510.20	1.1574E-03
510.40	1.1890E-03
510.60	1.1229E-03
510.80	1.0969E-03
511.00	1.0881E-03
511.20	1.2418E-03
511.40	1.1352E-03
511.60	1.1564E-03
511.80	1.1823E-03
512.00	1.1842E-03
512.20	1.2236E-03
512.40	1.1628E-03
512.60	1.1929E-03
512.80	1.2090E-03
513.00	1.2796E-03
513.20	1.2438E-03
513.40	1.1935E-03
513.59	1.1542E-03
513.79	1.2481E-03
513.99	1.2150E-03
514.19	1.2430E-03
514.39	1.2019E-03
514.59	1.2783E-03
514.79	1.2079E-03
514.99	1.1983E-03
515.19	1.2510E-03
515.39	1.2660E-03
515.59	1.2848E-03
515.79	1.1503E-03
515.99	1.3216E-03
516.19	1.2983E-03
516.39	1.2668E-03
516.59	1.2944E-03
516.79	1.3785E-03
516.98	1.2330E-03
517.18	1.3551E-03
517.38	1.3379E-03
517.58	1.3467E-03
517.78	1.3456E-03
517.98	1.3602E-03
518.18	1.3870E-03
518.38	1.5394E-03
518.58	1.4297E-03
518.78	1.4129E-03
518.98	1.4205E-03
519.18	1.4767E-03
519.38	1.5402E-03
519.57	1.5222E-03
519.77	1.4603E-03
519.97	1.5588E-03
520.17	1.5369E-03
520.37	1.5358E-03
520.57	1.6053E-03
520.77	1.6356E-03
520.97	1.6210E-03
521.17	1.6006E-03
521.37	1.6859E-03
521.57	1.7479E-03
521.76	1.6485E-03
521.96	1.7379E-03
522.16	1.7034E-03
522.36	1.8248E-03
522.56	1.6617E-03
522.76	1.7397E-03
522.96	1.8396E-03
523.16	1.7773E-03
523.36	1.8535E-03
523.55	1.7677E-03
523.75	1.7921E-03
523.95	1.8026E-03
524.15	1.7447E-03
524.35	1.7998E-03
524.55	1.8257E-03
524.75	1.8801E-03
524.95	1.9038E-03
525.14	1.8533E-03
525.34	1.8275E-03
525.54	1.7645E-03
525.74	1.8383E-03
525.94	1.8689E-03
526.14	1.9557E-03
526.34	1.9431E-03
526.54	2.0279E-03
526.73	1.8912E-03
526.93	2.0189E-03
527.13	2.0464E-03
527.33	2.0617E-03
527.53	2.1218E-03
527.73	2.0493E-03
527.93	2.1298E-03
528.12	2.0049E-03
528.32	2.0674E-03
528.52	2.1834E-03
528.72	2.2284E-03
528.92	2.1633E-03
529.12	2.1661E-03
529.32	2.2032E-03
529.51	2.2476E-03
529.71	2.2501E-03
529.91	2.2452E-03
530.11	2.3152E-03
530.31	2.3979E-03
530.51	2.2723E-03
530.70	2.2564E-03
530.90	2.3386E-03
531.10	2.2893E-03
531.30	2.3337E-03
531.50	2.3199E-03
531.70	2.3464E-03
531.89	2.2564E-03
532.09	2.2908E-03
532.29	2.2846E-03
532.49	2.4050E-03
532.69	2.3628E-03
532.88	2.3282E-03
533.08	2.2522E-03
533.28	2.3272E-03
533.48	2.4430E-03
533.68	2.3792E-03
533.88	2.5194E-03
534.07	2.4892E-03
534.27	2.4782E-03
534.47	2.5403E-03
534.67	2.3778E-03
534.87	2.5244E-03
535.06	2.5168E-03
535.26	2.4545E-03
535.46	2.4298E-03
535.66	2.6537E-03
535.86	2.5054E-03
536.05	2.4956E-03
536.25	2.5360E-03
536.45	2.5575E-03
536.65	2.5408E-03
536.85	2.4910E-03
537.04	2.5705E-03
537.24	2.6739E-03
537.44	2.4414E-03
537.64	2.3898E-03
537.83	2.5708E-03
538.03	2.5927E-03
538.23	2.6763E-03
538.43	2.6421E-03
538.63	2.5278E-03
538.82	2.5868E-03
539.02	2.5947E-03
539.22	2.6651E-03
539.42	2.5685E-03
539.61	2.6595E-03
539.81	2.6701E-03
540.01	2.5559E-03
540.21	2.6313E-03
540.41	2.5916E-03
540.60	2.6304E-03
540.80	2.6314E-03
541.00	2.6378E-03
541.20	2.7374E-03
541.39	2.7179E-03
541.59	2.7004E-03
541.79	2.7214E-03
541.99	2.8248E-03
542.18	2.7611E-03
542.38	2.7374E-03
542.58	2.7291E-03
542.78	2.7746E-03
542.97	2.6511E-03
543.17	2.7677E-03
543.37	2.6857E-03
543.57	2.8333E-03
543.76	2.9291E-03
543.96	2.8713E-03
544.16	2.7696E-03
544.36	2.8429E-03
544.55	3.0006E-03
544.75	2.9136E-03
544.95	2.9806E-03
545.14	2.7494E-03
545.34	2.9727E-03
545.54	2.8508E-03
545.74	2.8933E-03
545.93	2.9885E-03
546.13	2.9528E-03
546.33	2.8568E-03
546.53	2.8309E-03
546.72	3.0081E-03
546.92	3.0053E-03
547.12	2.9136E-03
547.31	2.9986E-03
547.51	2.9464E-03
547.71	3.0687E-03
547.91	3.0586E-03
548.10	2.8771E-03
548.30	2.9484E-03
548.50	3.0971E-03
548.69	3.0355E-03
548.89	2.9969E-03
549.09	3.0198E-03
549.29	2.9721E-03
549.48	3.2141E-03
549.68	2.9439E-03
549.88	3.1076E-03
550.07	3.1424E-03
550.27	3.1085E-03
550.47	2.6016E-03
550.66	3.2628E-03
550.86	2.9851E-03
551.06	3.2554E-03
551.25	3.0694E-03
551.45	3.2330E-03
551.65	3.2434E-03
551.85	3.3256E-03
552.04	3.0124E-03
552.24	3.1930E-03
552.44	3.1003E-03
552.63	3.0971E-03
552.83	3.2074E-03
553.03	3.0492E-03
553.22	3.2993E-03
553.42	3.1267E-03
553.62	3.3456E-03
553.81	3.1429E-03
554.01	3.2626E-03
554.21	3.1166E-03
554.40	3.2329E-03
554.60	3.1804E-03
554.80	3.2596E-03
554.99	3.2491E-03
555.19	3.2432E-03
555.39	3.2910E-03
555.58	3.1811E-03
555.78	3.2231E-03
555.98	3.1857E-03
556.17	3.1882E-03
556.37	3.2314E-03
556.56	3.2359E-03
556.76	3.2224E-03
556.96	3.1372E-03
557.15	3.1993E-03
557.35	3.1520E-03
557.55	3.1517E-03
557.74	3.1291E-03
557.94	3.2381E-03
558.14	3.2877E-03
558.33	3.1202E-03
558.53	3.0940E-03
558.73	3.1854E-03
558.92	3.0633E-03
559.12	3.2813E-03
559.31	3.2952E-03
559.51	3.3652E-03
559.71	3.2208E-03
559.90	3.3121E-03
560.10	3.2934E-03
560.30	3.2725E-03
560.49	3.1958E-03
560.69	3.3138E-03
560.88	3.3978E-03
561.08	3.1433E-03
561.28	3.1870E-03
561.47	3.3058E-03
561.67	3.3150E-03
561.86	3.2130E-03
562.06	3.2646E-03
562.26	3.3475E-03
562.45	3.2473E-03
562.65	3.3210E-03
562.84	3.1422E-03
563.04	3.2150E-03
563.24	3.1839E-03
563.43	3.3301E-03
563.63	3.3276E-03
563.82	3.2305E-03
564.02	3.3198E-03
564.22	3.3617E-03
564.41	3.1658E-03
564.61	3.2633E-03
564.80	3.2824E-03
565.00	3.1849E-03
565.20	3.3478E-03
565.39	3.1299E-03
565.59	3.0464E-03
565.78	3.1851E-03
565.98	3.0449E-03
566.18	3.2886E-03
566.37	3.1835E-03
566.57	3.1193E-03
566.76	3.0593E-03
566.96	3.2414E-03
567.15	3.0957E-03
567.35	3.3146E-03
567.55	3.1627E-03
567.74	3.1953E-03
567.94	3.0907E-03
568.13	3.1940E-03
568.33	3.2920E-03
568.52	3.2717E-03
568.72	3.1636E-03
568.91	3.1029E-03
569.11	3.1163E-03
569.31	3.2727E-03
569.50	3.0595E-03
569.70	3.1727E-03
569.89	3.1183E-03
570.09	3.0658E-03
570.28	3.0081E-03
570.48	3.0792E-03
570.67	3.2191E-03
570.87	2.9978E-03
571.07	2.9807E-03
571.26	3.1181E-03
571.46	3.0789E-03
571.65	3.1485E-03
571.85	3.1863E-03
572.04	3.0920E-03
572.24	3.2351E-03
572.43	3.0650E-03
572.63	3.1858E-03
572.82	3.0688E-03
573.02	3.1905E-03
573.21	3.0665E-03
573.41	3.1467E-03
573.60	3.2601E-03
573.80	3.2004E-03
573.99	3.1309E-03
574.19	3.2838E-03
574.38	3.1621E-03
574.58	3.2047E-03
574.78	3.0430E-03
574.97	3.2093E-03
575.17	3.1570E-03
575.36	3.0811E-03
575.56	2.9986E-03
575.75	3.2187E-03
575.95	3.0645E-03
576.14	3.0014E-03
576.34	3.1872E-03
576.53	3.0169E-03
576.73	3.0670E-03
576.92	2.9204E-03
577.12	3.1833E-03
577.31	2.8379E-03
577.51	3.1848E-03
577.70	3.0459E-03
577.90	3.0314E-03
578.09	3.1038E-03
578.29	2.9560E-03
578.48	3.1271E-03
578.68	3.0024E-03
578.87	3.2290E-03
579.06	2.9647E-03
579.26	3.0728E-03
579.45	2.9665E-03
579.65	3.2240E-03
579.84	3.0348E-03
580.04	3.1442E-03
580.23	3.2045E-03
580.43	2.9175E-03
580.62	3.0992E-03
580.82	3.1011E-03
581.01	3.0408E-03
581.21	3.0175E-03
581.40	2.9653E-03
581.60	3.1471E-03
581.79	3.1919E-03
581.99	3.0205E-03
582.18	3.0160E-03
582.37	3.1184E-03
582.57	3.1231E-03
582.76	3.2104E-03
582.96	3.2314E-03
583.15	3.1908E-03
583.35	3.1728E-03
583.54	3.1859E-03
583.74	3.1517E-03
583.93	3.0388E-03
584.12	2.9653E-03
584.32	3.2068E-03
584.51	3.1185E-03
584.71	2.9467E-03
584.90	2.9899E-03
585.10	3.0156E-03
585.29	3.0483E-03
585.49	3.0836E-03
585.68	3.1411E-03
585.87	3.0601E-03
586.07	3.0320E-03
586.26	3.0092E-03
586.46	3.0175E-03
586.65	2.9613E-03
586.85	3.0416E-03
587.04	2.7956E-03
587.23	3.0580E-03
587.43	2.9989E-03
587.62	2.7211E-03
587.82	2.9770E-03
588.01	2.8286E-03
588.20	2.8668E-03
588.40	2.7444E-03
588.59	2.8772E-03
588.79	2.9152E-03
588.98	3.0050E-03
589.18	2.8863E-03
589.37	2.9959E-03
589.56	2.7928E-03
589.76	2.7336E-03
589.95	3.0135E-03
590.15	2.9024E-03
590.34	2.7693E-03
590.53	3.0052E-03
590.73	2.8538E-03
590.92	2.8420E-03
591.11	2.9653E-03
591.31	2.9614E-03
591.50	3.0438E-03
591.70	2.9611E-03
591.89	3.1292E-03
592.08	2.9061E-03
592.28	2.8428E-03
592.47	3.0836E-03
592.67	3.0416E-03
592.86	3.0311E-03
593.05	2.8378E-03
593.25	3.0448E-03
593.44	2.9558E-03
593.63	3.1326E-03
593.83	2.9362E-03
594.02	3.1692E-03
594.22	3.1446E-03
594.41	3.2464E-03
594.60	3.0689E-03
594.80	3.1020E-03
594.99	3.1248E-03
595.18	3.1256E-03
595.38	3.0655E-03
595.57	3.1211E-03
595.76	3.1575E-03
595.96	3.1072E-03
596.15	2.9405E-03
596.34	3.3381E-03
596.54	3.3006E-03
596.73	3.1854E-03
596.93	3.2710E-03
597.12	3.1611E-03
597.31	3.2933E-03
597.51	3.1798E-03
597.70	3.2309E-03
597.89	3.1742E-03
598.09	3.1177E-03
598.28	3.4481E-03
598.47	3.1501E-03
598.67	3.2148E-03
598.86	3.0853E-03
599.05	3.3571E-03
599.25	3.2312E-03
599.44	3.3196E-03
599.63	3.4241E-03
599.83	3.2365E-03
600.02	3.2595E-03
600.21	3.2791E-03
600.41	3.3367E-03
600.60	3.1369E-03
600.79	3.2851E-03
600.98	3.2906E-03
601.18	3.4808E-03
601.37	3.1911E-03
601.56	3.2512E-03
601.76	3.5708E-03
601.95	3.2465E-03
602.14	3.3169E-03
602.34	3.3141E-03
602.53	3.4991E-03
602.72	3.2834E-03
602.92	3.4297E-03
603.11	3.3259E-03
603.30	3.4381E-03
603.49	3.3022E-03
603.69	3.5586E-03
603.88	3.4093E-03
604.07	3.5243E-03
604.27	3.3985E-03
604.46	3.2476E-03
604.65	3.4113E-03
604.84	3.3770E-03
605.04	3.4809E-03
605.23	3.4015E-03
605.42	3.4043E-03
605.62	3.4607E-03
605.81	3.3371E-03
606.00	3.3733E-03
606.19	3.4892E-03
606.39	3.4901E-03
606.58	3.3381E-03
606.77	3.3722E-03
606.97	3.2586E-03
607.16	3.4437E-03
607.35	3.5002E-03
607.54	3.3704E-03
607.74	3.5323E-03
607.93	3.5574E-03
608.12	3.3470E-03
608.31	3.4291E-03
608.51	3.4725E-03
608.70	3.3584E-03
608.89	3.3212E-03
609.08	3.2163E-03
609.28	3.3783E-03
609.47	3.4057E-03
609.66	3.4480E-03
609.85	3.4737E-03
610.05	3.5192E-03
610.24	3.3440E-03
610.43	3.4339E-03
610.62	3.3659E-03
610.82	3.3111E-03
611.01	3.4275E-03
611.20	3.3535E-03
611.39	3.3791E-03
611.59	3.3661E-03
611.78	3.4595E-03
611.97	3.4159E-03
612.16	3.5736E-03
612.35	3.3337E-03
612.55	3.3643E-03
612.74	3.4900E-03
612.93	3.4635E-03
613.12	3.2505E-03
613.32	3.3809E-03
613.51	3.4251E-03
613.70	3.3786E-03
613.89	3.3868E-03
614.08	3.4237E-03
614.28	3.3715E-03
614.47	3.2705E-03
614.66	3.3242E-03
614.85	3.4406E-03
615.04	3.4089E-03
615.24	3.5797E-03
615.43	3.3863E-03
615.62	3.3118E-03
615.81	3.3307E-03
616.00	3.0985E-03
616.20	3.2973E-03
616.39	3.3254E-03
616.58	3.3161E-03
616.77	3.3013E-03
616.96	3.5543E-03
617.16	3.5364E-03
617.35	3.4618E-03
617.54	3.3334E-03
617.73	3.2927E-03
617.92	3.3072E-03
618.12	3.4942E-03
618.31	3.4169E-03
618.50	3.4616E-03
618.69	3.3666E-03
618.88	3.6383E-03
619.07	3.4792E-03
619.27	3.5421E-03
619.46	3.5790E-03
619.65	3.7485E-03
619.84	3.4970E-03
620.03	3.4630E-03
620.22	3.7039E-03
620.42	3.3059E-03
620.61	3.7264E-03
620.80	3.6633E-03
620.99	3.6040E-03
621.18	3.7969E-03
621.37	3.5345E-03
621.57	3.3183E-03
621.76	3.6337E-03
621.95	3.5813E-03
622.14	3.4260E-03
622.33	3.3311E-03
622.52	3.4689E-03
622.71	3.6188E-03
622.91	3.6810E-03
623.10	3.6196E-03
623.29	3.5533E-03
623.48	3.4667E-03
623.67	3.6128E-03
623.86	3.6146E-03
624.05	3.5893E-03
624.25	3.4312E-03
624.44	3.6336E-03
624.63	3.7825E-03
624.82	3.6421E-03
625.01	3.5443E-03
625.20	3.7289E-03
625.39	3.4232E-03
625.58	3.6601E-03
625.78	3.7320E-03
625.97	3.3910E-03
626.16	3.5452E-03
626.35	3.5165E-03
626.54	3.7175E-03
626.73	3.7063E-03
626.92	3.6080E-03
627.11	3.5917E-03
627.31	3.5928E-03
627.50	3.5492E-03
627.69	3.6893E-03
627.88	3.7563E-03
628.07	3.2852E-03
628.26	3.5562E-03
628.45	3.4815E-03
628.64	3.5453E-03
628.83	3.5283E-03
629.02	3.2266E-03
629.22	3.8196E-03
629.41	3.5037E-03
629.60	3.2631E-03
629.79	3.6926E-03
629.98	3.4644E-03
630.17	3.5984E-03
630.36	3.5643E-03
630.55	3.5876E-03
630.74	3.6499E-03
630.93	3.7711E-03
631.12	3.4523E-03
631.31	3.4653E-03
631.51	3.7199E-03
631.70	3.6610E-03
631.89	3.4634E-03
632.08	3.5233E-03
632.27	3.6258E-03
632.46	3.5624E-03
632.65	3.5958E-03
632.84	3.4074E-03
633.03	3.8140E-03
633.22	3.6018E-03
633.41	3.7854E-03
633.60	3.7969E-03
633.79	3.6404E-03
633.98	3.4102E-03
634.17	3.6689E-03
634.37	3.6334E-03
634.56	3.7904E-03
634.75	3.4449E-03
634.94	3.7382E-03
635.13	3.5636E-03
635.32	3.7538E-03
635.51	3.7079E-03
635.70	3.4664E-03
635.89	3.9308E-03
636.08	3.5911E-03
636.27	3.4234E-03
636.46	3.7162E-03
636.65	3.5536E-03
636.84	3.3777E-03
637.03	3.6762E-03
637.22	3.6565E-03
637.41	3.5670E-03
637.60	3.6686E-03
637.79	3.6932E-03
637.98	3.6140E-03
638.17	3.6334E-03
638.36	3.4613E-03
638.55	3.2953E-03
638.74	3.3430E-03
638.93	3.4294E-03
639.12	3.3838E-03
639.31	3.4273E-03
639.50	3.3613E-03
639.69	3.3025E-03
639.88	3.5449E-03
640.07	3.3336E-03
640.26	3.5810E-03
640.45	3.4428E-03
640.64	3.5005E-03
640.83	3.4702E-03
641.02	3.6422E-03
641.21	3.4190E-03
641.40	3.1185E-03
641.59	3.4793E-03
641.78	3.5421E-03
641.97	3.4786E-03
642.16	3.5657E-03
642.35	3.5075E-03
642.54	3.5290E-03
642.73	3.4082E-03
642.92	2.9768E-03
643.11	3.5239E-03
643.30	3.5735E-03
643.49	3.3236E-03
643.68	3.4229E-03
643.87	3.1801E-03
644.06	3.4153E-03
644.25	3.2469E-03
644.44	3.3099E-03
644.63	3.2552E-03
644.82	3.2749E-03
645.01	3.3985E-03
645.20	3.3508E-03
645.39	3.2234E-03
645.58	3.1539E-03
645.77	3.1605E-03
645.96	3.3836E-03
646.15	3.1975E-03
646.34	3.2524E-03
646.53	3.1760E-03
646.72	3.2347E-03
646.91	2.9910E-03
647.10	3.4255E-03
647.29	3.1097E-03
647.47	3.2592E-03
647.66	3.0670E-03
647.85	2.9595E-03
648.04	2.9697E-03
648.23	2.9721E-03
648.42	3.4110E-03
648.61	2.8199E-03
648.80	3.0619E-03
648.99	3.1920E-03
649.18	2.8825E-03
649.37	3.1420E-03
649.56	3.0015E-03
649.75	2.9386E-03
649.94	3.1913E-03
650.13	3.1195E-03
650.31	3.1631E-03
650.50	3.0283E-03
650.69	3.1877E-03
650.88	3.0624E-03
651.07	3.0925E-03
651.26	3.1878E-03
651.45	3.4241E-03
651.64	3.2230E-03
651.83	2.9954E-03
652.02	3.1781E-03
652.21	3.0448E-03
652.40	3.0643E-03
652.58	3.4803E-03
652.77	3.0193E-03
652.96	2.9589E-03
653.15	3.2247E-03
653.34	3.1844E-03
653.53	3.2119E-03
653.72	3.1575E-03
653.91	2.8953E-03
654.10	3.0135E-03
654.29	2.8239E-03
654.47	3.2279E-03
654.66	2.6687E-03
654.85	2.7634E-03
655.04	2.6056E-03
655.23	2.8196E-03
655.42	2.5139E-03
655.61	2.7632E-03
655.80	2.7042E-03
655.98	2.8699E-03
656.17	2.7940E-03
656.36	2.8955E-03
656.55	2.7087E-03
656.74	3.0408E-03
656.93	2.9629E-03
657.12	2.9837E-03
657.31	2.7318E-03
657.49	3.1845E-03
657.68	3.0340E-03
657.87	2.6353E-03
658.06	3.1944E-03
658.25	2.8807E-03
658.44	3.1047E-03
658.63	2.9330E-03
658.81	2.8475E-03
659.00	3.0478E-03
659.19	2.9281E-03
659.38	3.2964E-03
659.57	3.2586E-03
659.76	2.9681E-03
659.95	3.3061E-03
660.13	2.7962E-03
660.32	3.1085E-03
660.51	2.9912E-03
660.70	3.1988E-03
660.89	2.9910E-03
661.08	3.0879E-03
661.26	2.9088E-03
661.45	3.1200E-03
661.64	2.9454E-03
661.83	2.9139E-03
662.02	2.9801E-03
662.21	3.1295E-03
662.39	3.2090E-03
662.58	3.0023E-03
662.77	3.3808E-03
662.96	3.1619E-03
663.15	2.9064E-03
663.33	3.3016E-03
663.52	3.0451E-03
663.71	3.0565E-03
663.90	3.0767E-03
664.09	2.8196E-03
664.28	2.9999E-03
664.46	2.8508E-03
664.65	2.8819E-03
664.84	2.7080E-03
665.03	2.9391E-03
665.22	3.0139E-03
665.40	3.0088E-03
665.59	2.8589E-03
665.78	2.8280E-03
665.97	2.8115E-03
666.16	2.9775E-03
666.34	3.1414E-03
666.53	2.7878E-03
666.72	3.1019E-03
666.91	2.9339E-03
667.09	2.9662E-03
667.28	3.1102E-03
667.47	3.0663E-03
667.66	2.9561E-03
667.85	2.9303E-03
668.03	2.2258E-03
668.22	3.1208E-03
668.41	2.9384E-03
668.60	2.5008E-03
668.78	3.0954E-03
668.97	2.8873E-03
669.16	2.7449E-03
669.35	3.0975E-03
669.54	2.6957E-03
669.72	3.1149E-03
669.91	2.9135E-03
670.10	3.0290E-03
670.29	2.9973E-03
670.47	3.1558E-03
670.66	3.2410E-03
670.85	3.0057E-03
671.04	2.7418E-03
671.22	2.7306E-03
671.41	2.9822E-03
671.60	3.0180E-03
671.79	3.0419E-03
671.97	2.8810E-03
672.16	3.2796E-03
672.35	3.1571E-03
672.54	3.1465E-03
672.72	2.9648E-03
672.91	2.7942E-03
673.10	2.9459E-03
673.28	2.8308E-03
673.47	2.8823E-03
673.66	2.8899E-03
673.85	3.2512E-03
674.03	3.0315E-03
674.22	2.9941E-03
674.41	2.7973E-03
674.60	2.8219E-03
674.78	2.5176E-03
674.97	2.6896E-03
675.16	3.3614E-03
675.34	3.0740E-03
675.53	2.8468E-03
675.72	2.6988E-03
675.91	3.2378E-03
676.09	2.9576E-03
676.28	3.1263E-03
676.47	3.0170E-03
676.65	2.6453E-03
676.84	2.9218E-03
677.03	3.1004E-03
677.22	2.8200E-03
677.40	3.0639E-03
677.59	2.9483E-03
677.78	2.8202E-03
677.96	2.9282E-03
678.15	3.1312E-03
678.34	3.3806E-03
678.52	2.8667E-03
678.71	2.9809E-03
678.90	3.0211E-03
679.08	3.1152E-03
679.27	2.8600E-03
679.46	3.3454E-03
679.64	3.1172E-03
679.83	3.0220E-03
680.02	3.0822E-03
680.21	2.6405E-03
680.39	3.3207E-03
680.58	3.1217E-03
680.77	3.0193E-03
680.95	3.0535E-03
681.14	2.7056E-03
681.33	3.0544E-03
681.51	3.2496E-03
681.70	3.1516E-03
681.89	3.2780E-03
682.07	3.0550E-03
682.26	2.6415E-03
682.44	3.1653E-03
682.63	3.1008E-03
682.82	3.2556E-03
683.00	2.5988E-03
683.19	3.0192E-03
683.38	3.1513E-03
683.56	3.2464E-03
683.75	3.1033E-03
683.94	2.7669E-03
684.12	2.7705E-03
684.31	3.1568E-03
684.50	3.2336E-03
684.68	2.9297E-03
684.87	2.9444E-03
685.05	3.0482E-03
685.24	2.6833E-03
685.43	2.9209E-03
685.61	2.9150E-03
685.80	2.6538E-03
685.99	2.9620E-03
686.17	2.6367E-03
686.36	3.0940E-03
686.54	3.1018E-03
686.73	2.9859E-03
686.92	3.0241E-03
687.10	2.8720E-03
687.29	3.1531E-03
687.48	2.8611E-03
687.66	3.3827E-03
687.85	2.9716E-03
688.03	3.1321E-03
688.22	2.8091E-03
688.41	3.2373E-03
688.59	2.7998E-03
688.78	3.2852E-03
688.96	3.3854E-03
689.15	3.6076E-03
689.34	2.8451E-03
689.52	3.7399E-03
689.71	3.4305E-03
689.89	3.6422E-03
690.08	3.9227E-03
690.27	3.6259E-03
690.45	3.5244E-03
690.64	3.4810E-03
690.82	3.3231E-03
691.01	3.6927E-03
691.19	3.5974E-03
691.38	3.7537E-03
691.57	3.9391E-03
691.75	3.5748E-03
691.94	3.9992E-03
692.12	3.7383E-03
692.31	4.0678E-03
692.50	3.8987E-03
692.68	4.0929E-03
692.87	4.3334E-03
693.05	4.2015E-03
693.24	3.8944E-03
693.42	4.0911E-03
693.61	4.3235E-03
693.79	4.5450E-03
693.98	4.2191E-03
694.17	4.5036E-03
694.35	4.8136E-03
694.54	4.8709E-03
694.72	4.7236E-03
694.91	4.8086E-03
695.09	4.8514E-03
695.28	4.9288E-03
695.46	5.0498E-03
695.65	5.1777E-03
695.83	5.2733E-03
696.02	5.5358E-03
696.21	5.6286E-03
696.39	5.3434E-03
696.58	5.6090E-03
696.76	4.9948E-03
696.95	5.3991E-03
697.13	5.4991E-03
697.32	5.6821E-03
697.50	5.7036E-03
697.69	5.8362E-03
697.87	6.0484E-03
698.06	6.0951E-03
698.24	5.8209E-03
698.43	5.9690E-03
698.61	6.4613E-03
698.80	6.1792E-03
698.98	6.4990E-03
699.17	5.8144E-03
699.35	6.3873E-03
699.54	6.2908E-03
699.72	5.9551E-03
699.91	6.6388E-03
700.09	6.6918E-03
700.28	6.8284E-03
700.46	6.8818E-03
700.65	6.8200E-03
700.83	7.0510E-03
701.02	7.2725E-03
701.20	6.6459E-03
701.39	7.5470E-03
701.57	7.3106E-03
701.76	7.0617E-03
701.94	7.3621E-03
702.13	7.5500E-03
702.31	7.0067E-03
702.50	8.3090E-03
702.68	8.1040E-03
702.87	8.3353E-03
703.05	8.4098E-03
703.24	8.3233E-03
703.42	7.6464E-03
703.61	8.6637E-03
703.79	8.8924E-03
703.98	8.3817E-03
704.16	8.7054E-03
704.35	8.6175E-03
704.53	8.8921E-03
704.72	8.9699E-03
704.90	9.1425E-03
705.08	8.8482E-03
705.27	9.5528E-03
705.45	9.5475E-03
705.64	9.7767E-03
705.82	9.7345E-03
706.01	9.7636E-03
706.19	9.6237E-03
706.38	9.8273E-03
706.56	1.0339E-02
706.75	1.0299E-02
706.93	1.0248E-02
707.11	9.8939E-03
707.30	1.0548E-02
707.48	1.0577E-02
707.67	1.0324E-02
707.85	1.0564E-02
708.04	1.0854E-02
708.22	1.0896E-02
708.40	1.0744E-02
708.59	1.0703E-02
708.77	1.1402E-02
708.96	1.1251E-02
709.14	1.1469E-02
709.33	1.1387E-02
709.51	1.1733E-02
709.69	1.1808E-02
709.88	1.2054E-02
710.06	1.2059E-02
710.25	1.1891E-02
710.43	1.2260E-02
710.62	1.2597E-02
710.80	1.2431E-02
710.98	1.2673E-02
711.17	1.2615E-02
711.35	1.2814E-02
711.54	1.3025E-02
711.72	1.2760E-02
711.90	1.3202E-02
712.09	1.3264E-02
712.27	1.2848E-02
712.46	1.3254E-02
712.64	1.2991E-02
712.82	1.3577E-02
713.01	1.3658E-02
713.19	1.3648E-02
713.37	1.3423E-02
713.56	1.3380E-02
713.74	1.3748E-02
713.93	1.3491E-02
714.11	1.3334E-02
714.29	1.3019E-02
714.48	1.3645E-02
714.66	1.3627E-02
714.85	1.3324E-02
715.03	1.3368E-02
715.21	1.3283E-02
715.40	1.2977E-02
715.58	1.3002E-02
715.76	1.2666E-02
715.95	1.2816E-02
716.13	1.3228E-02
716.31	1.2965E-02
716.50	1.2824E-02
716.68	1.2593E-02
716.87	1.2859E-02
717.05	1.2831E-02
717.23	1.2414E-02
717.42	1.2706E-02
717.60	1.2565E-02
717.78	1.2772E-02
717.97	1.2805E-02
718.15	1.2685E-02
718.33	1.2607E-02
718.52	1.2997E-02
718.70	1.3226E-02
718.88	1.2967E-02
719.07	1.3826E-02
719.25	1.3434E-02
719.43	1.3771E-02
719.62	1.3797E-02
719.80	1.3951E-02
719.98	1.4566E-02
720.17	1.4453E-02
720.35	1.4580E-02
720.53	1.5035E-02
720.72	1.5355E-02
720.90	1.5237E-02
721.08	1.5165E-02
721.27	1.5462E-02
721.45	1.5554E-02
721.63	1.5606E-02
721.82	1.5932E-02
722.00	1.5769E-02
722.18	1.5841E-02
722.36	1.6277E-02
722.55	1.6193E-02
722.73	1.6288E-02
722.91	1.6307E-02
723.10	1.6631E-02
723.28	1.6436E-02
723.46	1.5864E-02
723.65	1.6408E-02
723.83	1.6474E-02
724.01	1.6458E-02
724.19	1.6821E-02
724.38	1.6944E-02
724.56	1.7152E-02
724.74	1.7373E-02
724.93	1.6800E-02
725.11	1.6979E-02
725.29	1.7517E-02
725.47	1.7512E-02
725.66	1.7598E-02
725.84	1.7572E-02
726.02	1.7733E-02
726.21	1.8198E-02
726.39	1.7954E-02
726.57	1.8168E-02
726.75	1.8118E-02
726.94	1.8661E-02
727.12	1.8422E-02
727.30	1.8495E-02
727.48	1.8371E-02
727.67	1.8905E-02
727.85	1.8739E-02
728.03	1.9042E-02
728.21	1.9461E-02
728.40	1.9157E-02
728.58	1.9810E-02
728.76	1.9683E-02
728.94	2.0053E-02
729.13	2.0382E-02
729.31	2.0103E-02
729.49	2.0599E-02
729.67	2.0772E-02
729.86	2.1085E-02
730.04	2.0840E-02
730.22	2.1584E-02
730.40	2.1720E-02
730.59	2.2019E-02
730.77	2.2306E-02
730.95	2.2850E-02
731.13	2.2856E-02
731.31	2.3208E-02
731.50	2.2974E-02
731.68	2.3947E-02
731.86	2.3845E-02
732.04	2.4227E-02
732.23	2.4705E-02
732.41	2.4679E-02
732.59	2.5005E-02
732.77	2.5224E-02
732.95	2.5441E-02
733.14	2.5422E-02
733.32	2.6077E-02
733.50	2.6024E-02
733.68	2.6163E-02
733.86	2.6333E-02
734.05	2.6690E-02
734.23	2.6910E-02
734.41	2.6433E-02
734.59	2.6934E-02
734.77	2.7169E-02
734.96	2.6736E-02
735.14	2.7611E-02
735.32	2.7617E-02
735.50	2.7734E-02
735.68	2.8263E-02
735.87	2.8061E-02
736.05	2.8747E-02
736.23	2.7923E-02
736.41	2.8775E-02
736.59	2.8767E-02
736.77	2.8776E-02
736.96	2.8813E-02
737.14	2.8592E-02
737.32	2.9346E-02
737.50	2.9591E-02
737.68	2.9521E-02
737.87	2.9804E-02
738.05	3.0238E-02
738.23	2.9509E-02
738.41	2.9923E-02
738.59	3.0195E-02
738.77	3.0457E-02
738.95	3.0914E-02
739.14	3.0453E-02
739.32	3.0616E-02
739.50	3.1394E-02
739.68	3.0912E-02
739.86	3.1245E-02
740.04	3.1323E-02
740.23	3.1025E-02
740.41	3.1764E-02
740.59	3.1980E-02
740.77	3.2350E-02
740.95	3.2206E-02
741.13	3.2175E-02
741.31	3.2179E-02
741.50	3.2433E-02
741.68	3.2413E-02
741.86	3.2450E-02
742.04	3.3088E-02
742.22	3.3349E-02
742.40	3.3301E-02
742.58	3.3568E-02
742.76	3.3750E-02
742.95	3.3126E-02
743.13	3.4049E-02
743.31	3.3940E-02
743.49	3.3868E-02
743.67	3.4422E-02
743.85	3.4346E-02
744.03	3.4152E-02
744.21	3.4421E-02
744.39	3.4016E-02
744.58	3.4633E-02
744.76	3.4693E-02
744.94	3.5031E-02
745.12	3.4808E-02
745.30	3.4576E-02
745.48	3.5046E-02
745.66	3.5221E-02
745.84	3.4647E-02
746.02	3.4712E-02
746.20	3.4959E-02
746.38	3.5222E-02
746.57	3.5617E-02
746.75	3.4690E-02
746.93	3.5398E-02
747.11	3.4923E-02
747.29	3.5291E-02
747.47	3.5635E-02
747.65	3.5529E-02
747.83	3.4951E-02
748.01	3.5464E-02
748.19	3.5596E-02
748.37	3.5570E-02
748.55	3.5580E-02
748.73	3.5399E-02
748.92	3.5738E-02
749.10	3.5472E-02
749.28	3.5978E-02
749.46	3.5661E-02
749.64	3.5554E-02
749.82	3.5822E-02
750.00	3.6252E-02
750.18	3.6132E-02
750.36	3.5762E-02
750.54	3.6308E-02
750.72	3.6644E-02
750.90	3.6669E-02
751.08	3.6447E-02
751.26	3.6830E-02
751.44	3.6916E-02
751.62	3.7267E-02
751.80	3.6995E-02
751.98	3.7277E-02
752.16	3.7451E-02
752.34	3.7587E-02
752.52	3.7800E-02
752.71	3.7185E-02
752.89	3.7152E-02
753.07	3.8005E-02
753.25	3.7303E-02
753.43	3.8190E-02
753.61	3.7642E-02
753.79	3.8371E-02
753.97	3.8267E-02
754.15	3.8432E-02
754.33	3.8681E-02
754.51	3.8768E-02
754.69	3.8978E-02
754.87	3.8747E-02
755.05	3.8892E-02
755.23	3.9277E-02
755.41	3.9535E-02
755.59	3.7521E-02
755.77	3.8689E-02
755.95	3.8543E-02
756.13	3.7787E-02
756.31	3.8364E-02
756.49	3.8084E-02
756.67	3.7356E-02
756.85	3.6899E-02
757.03	3.6221E-02
757.21	3.5743E-02
757.39	3.5290E-02
757.57	3.4802E-02
757.75	3.3483E-02
757.93	3.2231E-02
758.11	3.1791E-02
758.29	3.1076E-02
758.47	2.9950E-02
758.65	2.9422E-02
758.83	2.9336E-02
759.01	2.8249E-02
759.18	2.7269E-02
759.36	2.5869E-02
759.54	2.5946E-02
759.72	2.4858E-02
759.90	2.4728E-02
760.08	2.4233E-02
760.26	2.3938E-02
760.44	2.3080E-02
760.62	2.2414E-02
760.80	2.2375E-02
760.98	2.3185E-02
761.16	2.3139E-02
761.34	2.2731E-02
761.52	2.3409E-02
761.70	2.2700E-02
761.88	2.2966E-02
762.06	2.3155E-02
762.24	2.3244E-02
762.42	2.3585E-02
762.60	2.3839E-02
762.78	2.4346E-02
762.95	2.4519E-02
763.13	2.5271E-02
763.31	2.5770E-02
763.49	2.5897E-02
763.67	2.6559E-02
763.85	2.6598E-02
764.03	2.8066E-02
764.21	2.8095E-02
764.39	2.9133E-02
764.57	3.0182E-02
764.75	3.0492E-02
764.93	3.1897E-02
765.11	3.1701E-02
765.28	3.2998E-02
765.46	3.3453E-02
765.64	3.3868E-02
765.82	3.4817E-02
766.00	3.5596E-02
766.18	3.6135E-02
766.36	3.6600E-02
766.54	3.6996E-02
766.72	3.7625E-02
766.90	3.8870E-02
767.07	3.8326E-02
767.25	3.9255E-02
767.43	3.9844E-02
767.61	4.0548E-02
767.79	4.0839E-02
767.97	4.0978E-02
768.15	4.0924E-02
768.33	4.0915E-02
768.51	4.1786E-02
768.68	4.2100E-02
768.86	4.1946E-02
769.04	4.2244E-02
769.22	4.3378E-02
769.40	4.3361E-02
769.58	4.2970E-02
769.76	4.3955E-02
769.94	4.3937E-02
770.11	4.3447E-02
770.29	4.3814E-02
770.47	4.3814E-02
770.65	4.4005E-02
770.83	4.3980E-02
771.01	4.4357E-02
771.19	4.4287E-02
771.36	4.3733E-02
771.54	4.4343E-02
771.72	4.4013E-02
771.90	4.3666E-02
772.08	4.4204E-02
772.26	4.4632E-02
772.44	4.3643E-02
772.61	4.4164E-02
772.79	4.3555E-02
772.97	4.4266E-02
773.15	4.4685E-02
773.33	4.3709E-02
773.51	4.4330E-02
773.68	4.3767E-02
773.86	4.3509E-02
774.04	4.3859E-02
774.22	4.3388E-02
774.40	4.3635E-02
774.58	4.3921E-02
774.75	4.3748E-02
774.93	4.3035E-02
775.11	4.4000E-02
775.29	4.3435E-02
775.47	4.2963E-02
775.64	4.3710E-02
775.82	4.3347E-02
776.00	4.3497E-02
776.18	4.2923E-02
776.36	4.2977E-02
776.53	4.3756E-02
776.71	4.2753E-02
776.89	4.2588E-02
777.07	4.3006E-02
777.25	4.2811E-02
777.42	4.2794E-02
777.60	4.2400E-02
777.78	4.2829E-02
777.96	4.2457E-02
778.14	4.2915E-02
778.31	4.2396E-02
778.49	4.1725E-02
778.67	4.1887E-02
778.85	4.2108E-02
779.03	4.2354E-02
779.20	4.2239E-02
779.38	4.2054E-02
779.56	4.1489E-02
779.74	4.2158E-02
779.91	4.1693E-02
780.09	4.1526E-02
780.27	4.1089E-02
780.45	4.1428E-02
780.62	4.1683E-02
780.80	4.1801E-02
780.98	4.0966E-02
781.16	4.0535E-02
781.34	4.1289E-02
781.51	4.1402E-02
781.69	4.1509E-02
781.87	4.1213E-02
782.05	4.0998E-02
782.22	4.0963E-02
782.40	4.0699E-02
782.58	4.0927E-02
782.76	4.0384E-02
782.93	4.1009E-02
783.11	4.1259E-02
783.29	4.0388E-02
783.47	4.0355E-02
783.64	4.0533E-02
783.82	4.0053E-02
784.00	3.9366E-02
784.17	3.9857E-02
784.35	3.9947E-02
784.53	3.9689E-02
784.71	3.9967E-02
784.88	3.9437E-02
785.06	4.0130E-02
785.24	3.9351E-02
785.42	3.9644E-02
785.59	3.9311E-02
785.77	3.8364E-02
785.95	3.8709E-02
786.12	3.8095E-02
786.30	3.8605E-02
786.48	3.8418E-02
786.65	3.8038E-02
786.83	3.8166E-02
787.01	3.8159E-02
787.19	3.7862E-02
787.36	3.7963E-02
787.54	3.7666E-02
787.72	3.7854E-02
787.89	3.7662E-02
788.07	3.7479E-02
788.25	3.7240E-02
788.42	3.6995E-02
788.60	3.7576E-02
788.78	3.6981E-02
788.96	3.7044E-02
789.13	3.6565E-02
789.31	3.6643E-02
789.49	3.6567E-02
789.66	3.6902E-02
789.84	3.6239E-02
790.02	3.5437E-02
790.19	3.5992E-02
790.37	3.6179E-02
790.55	3.5840E-02
790.72	3.5865E-02
790.90	3.6452E-02
791.08	3.5571E-02
791.25	3.5653E-02
791.43	3.5670E-02
791.61	3.5276E-02
791.78	3.5167E-02
791.96	3.4439E-02
792.14	3.5027E-02
792.31	3.5326E-02
792.49	3.4217E-02
792.67	3.5452E-02
792.84	3.4553E-02
793.02	3.4603E-02
793.19	3.4396E-02
793.37	3.5052E-02
793.55	3.5072E-02
793.72	3.4870E-02
793.90	3.4067E-02
794.08	3.4586E-02
794.25	3.4724E-02
794.43	3.4257E-02
794.61	3.4584E-02
794.78	3.4521E-02
794.96	3.3886E-02
795.13	3.4525E-02
795.31	3.4679E-02
795.49	3.3895E-02
795.66	3.4440E-02
795.84	3.4173E-02
796.01	3.4270E-02
796.19	3.3937E-02
796.37	3.4459E-02
796.54	3.4210E-02
796.72	3.4453E-02
796.90	3.4013E-02
797.07	3.3554E-02
797.25	3.4035E-02
797.42	3.4405E-02
797.60	3.4318E-02
797.78	3.3934E-02
797.95	3.3467E-02
798.13	3.3151E-02
798.30	3.3780E-02
798.48	3.3569E-02
798.66	3.4019E-02
798.83	3.2962E-02
799.01	3.3511E-02
799.18	3.3066E-02
799.36	3.3760E-02
799.53	3.2383E-02
799.71	3.3436E-02
799.89	3.2800E-02
800.06	3.2815E-02
800.24	3.2770E-02
800.41	3.1929E-02
800.59	3.3004E-02
800.76	3.2068E-02
800.94	3.1998E-02
801.12	3.2574E-02
801.29	3.2308E-02
801.47	3.2558E-02
801.64	3.1775E-02
801.82	3.2469E-02
801.99	3.2400E-02
802.17	3.2330E-02
802.34	3.2140E-02
802.52	3.2072E-02
802.70	3.2294E-02
802.87	3.1588E-02
803.05	3.1289E-02
803.22	3.2472E-02
803.40	3.1796E-02
803.57	3.1757E-02
803.75	3.2430E-02
803.92	3.1961E-02
804.10	3.1247E-02
804.27	3.1346E-02
804.45	3.1709E-02
804.63	3.1509E-02
804.80	3.1167E-02
804.98	3.1746E-02
805.15	3.0887E-02
805.33	3.2188E-02
805.50	3.2312E-02
805.68	3.2010E-02
805.85	3.2297E-02
806.03	3.1718E-02
806.20	3.1812E-02
806.38	3.0519E-02
806.55	3.0808E-02
806.73	3.2070E-02
806.90	3.1340E-02
807.08	3.1075E-02
807.25	3.0423E-02
807.43	3.1187E-02
807.60	3.1444E-02
807.78	3.0566E-02
807.95	2.9919E-02
808.13	3.0305E-02
808.30	3.0122E-02
808.48	3.0982E-02
808.65	3.0503E-02
808.83	3.1218E-02
809.00	3.0321E-02
809.18	3.0990E-02
809.35	2.9757E-02
809.53	3.0588E-02
809.70	3.0048E-02
809.88	3.0048E-02
810.05	2.9751E-02
810.23	3.0101E-02
810.40	2.9664E-02
810.57	2.9453E-02
810.75	2.8781E-02
810.92	2.8579E-02
811.10	2.8543E-02
811.27	2.7851E-02
811.45	2.8070E-02
811.62	2.7609E-02
811.80	2.7083E-02
811.97	2.7526E-02
812.15	2.7454E-02
812.32	2.7294E-02
812.50	2.6027E-02
812.67	2.7646E-02
812.84	2.5864E-02
813.02	2.6329E-02
813.19	2.5988E-02
813.37	2.5852E-02
813.54	2.5017E-02
813.72	2.5123E-02
813.89	2.4287E-02
814.07	2.4630E-02
814.24	2.4675E-02
814.41	2.4680E-02
814.59	2.3663E-02
814.76	2.3336E-02
814.94	2.3766E-02
815.11	2.3886E-02
815.29	2.2093E-02
815.46	2.2310E-02
815.63	2.2567E-02
815.81	2.2456E-02
815.98	2.1167E-02
816.16	2.1248E-02
816.33	2.2306E-02
816.50	2.2717E-02
816.68	2.2182E-02
816.85	2.1686E-02
817.03	2.2279E-02
817.20	2.1899E-02
817.37	2.2417E-02
817.55	2.1881E-02
817.72	2.2198E-02
817.90	2.1313E-02
818.07	2.2020E-02
818.24	2.1075E-02
818.42	2.1545E-02
818.59	2.1527E-02
818.77	2.1563E-02
818.94	2.2404E-02
819.11	2.1443E-02
819.29	2.2577E-02
819.46	2.2397E-02
819.64	2.1331E-02
819.81	2.2989E-02
819.98	2.2679E-02
820.16	2.1727E-02
820.33	2.2407E-02
820.50	2.2310E-02
820.68	2.1588E-02
820.85	2.2255E-02
821.02	2.1956E-02
821.20	2.1313E-02
821.37	2.2017E-02
821.55	2.0975E-02
821.72	2.1685E-02
821.89	2.1824E-02
822.07	2.2410E-02
822.24	2.2327E-02
822.41	2.0971E-02
822.59	2.2858E-02
822.76	2.2766E-02
822.93	2.1655E-02
823.11	2.2076E-02
823.28	2.2430E-02
823.45	2.1894E-02
823.63	2.2053E-02
823.80	2.2765E-02
823.97	2.1109E-02
824.15	2.2934E-02
824.32	2.2229E-02
824.49	2.3632E-02
824.67	2.2431E-02
824.84	2.2926E-02
825.01	2.2963E-02
825.19	2.2916E-02
825.36	2.2895E-02
825.53	2.3552E-02
825.71	2.3278E-02
825.88	2.3441E-02
826.05	2.2462E-02
826.23	2.3258E-02
826.40	2.2696E-02
826.57	2.2828E-02
826.75	2.2470E-02
826.92	2.1993E-02
827.09	2.2043E-02
827.26	2.3735E-02
827.44	2.2968E-02
827.61	2.3792E-02
827.78	2.3150E-02
827.96	2.1905E-02
828.13	2.3657E-02
828.30	2.3123E-02
828.48	2.2771E-02
828.65	2.2641E-02
828.82	2.2842E-02
828.99	2.2886E-02
829.17	2.3053E-02
829.34	2.1582E-02
829.51	2.2701E-02
829.68	2.3585E-02
829.86	2.3256E-02
830.03	2.2665E-02
830.20	2.3028E-02
830.38	2.2728E-02
830.55	2.1921E-02
830.72	2.2811E-02
830.89	2.1716E-02
831.07	2.1651E-02
831.24	2.1606E-02
831.41	2.1996E-02
831.58	2.2671E-02
831.76	2.3346E-02
831.93	2.2756E-02
832.10	2.2684E-02
832.27	2.1377E-02
832.45	2.1314E-02
832.62	2.2356E-02
832.79	2.1741E-02
832.96	2.2519E-02
833.14	2.1268E-02
833.31	2.2995E-02
833.48	2.2288E-02
833.65	2.1765E-02
833.83	2.3091E-02
834.00	2.3242E-02
834.17	2.2328E-02
834.34	2.2914E-02
834.51	2.2389E-02
834.69	2.2046E-02
834.86	2.3254E-02
835.03	2.2427E-02
835.20	2.3241E-02
835.38	2.2623E-02
835.55	2.2815E-02
835.72	2.2524E-02
835.89	2.4274E-02
836.06	2.2529E-02
836.24	2.2495E-02
836.41	2.2043E-02
836.58	2.3480E-02
836.75	2.3422E-02
836.92	2.3204E-02
837.10	2.2514E-02
837.27	2.2964E-02
837.44	2.2447E-02
837.61	2.4015E-02
837.78	2.2836E-02
837.96	2.3510E-02
838.13	2.3146E-02
838.30	2.3820E-02
838.47	2.3459E-02
838.64	2.3161E-02
838.82	2.3074E-02
838.99	2.4463E-02
839.16	2.3016E-02
839.33	2.3150E-02
839.50	2.4324E-02
839.67	2.3631E-02
839.85	2.2328E-02
840.02	2.3552E-02
840.19	2.3056E-02
840.36	2.4271E-02
840.53	2.2692E-02
840.70	2.2526E-02
840.88	2.3991E-02
841.05	2.4322E-02
841.22	2.3552E-02
841.39	2.3489E-02
841.56	2.3653E-02
841.73	2.3309E-02
841.91	2.3955E-02
842.08	2.3833E-02
842.25	2.3664E-02
842.42	2.3952E-02
842.59	2.3492E-02
842.76	2.4810E-02
842.93	2.3590E-02
843.11	2.3911E-02
843.28	2.3568E-02
843.45	2.3665E-02
843.62	2.2632E-02
843.79	2.2896E-02
843.96	2.4246E-02
844.13	2.3500E-02
844.30	2.3388E-02
844.48	2.4153E-02
844.65	2.2604E-02
844.82	2.2039E-02
844.99	2.2972E-02
845.16	2.2828E-02
845.33	2.3042E-02
845.50	2.2998E-02
845.67	2.2152E-02
845.84	2.3092E-02
846.02	2.2483E-02
846.19	2.3053E-02
846.36	2.2968E-02
846.53	2.4068E-02
846.70	2.3154E-02
846.87	2.1732E-02
847.04	2.3186E-02
847.21	2.3083E-02
847.38	2.3050E-02
847.55	2.2995E-02
847.73	2.2070E-02
847.90	2.2545E-02
848.07	2.1715E-02
848.24	2.1983E-02
848.41	2.1560E-02
848.58	2.4138E-02
848.75	2.2151E-02
848.92	2.3656E-02
849.09	2.2360E-02
849.26	2.1809E-02
849.43	2.1287E-02
849.60	2.1953E-02
849.77	2.2601E-02
849.94	1.9489E-02
850.12	2.2790E-02
850.29	2.2115E-02
850.46	2.1737E-02
850.63	2.1324E-02
850.80	2.2006E-02
850.97	2.1881E-02
851.14	2.0702E-02
851.31	1.9774E-02
851.48	2.0849E-02
851.65	2.1232E-02
851.82	2.2147E-02
851.99	2.1707E-02
852.16	1.9558E-02
852.33	2.1115E-02
852.50	2.0416E-02
852.67	2.0684E-02
852.84	2.1024E-02
853.01	2.0322E-02
853.18	2.0936E-02
853.35	1.9784E-02
853.52	2.1835E-02
853.69	2.0286E-02
853.86	1.9288E-02
854.03	1.9089E-02
854.21	2.0511E-02
854.38	2.0090E-02
854.55	2.0719E-02
854.72	2.0911E-02
854.89	1.9354E-02
855.06	1.8259E-02
855.23	1.9895E-02
855.40	2.1022E-02
855.57	1.9026E-02
855.74	1.9638E-02
855.91	2.0096E-02
856.08	1.9200E-02
856.25	2.0227E-02
856.42	1.9903E-02
856.59	1.9824E-02
856.76	2.0273E-02
856.93	2.0162E-02
857.10	1.9997E-02
857.27	2.1479E-02
857.44	2.0501E-02
857.61	2.0456E-02
857.77	1.9489E-02
857.94	1.9574E-02
858.11	1.9411E-02
858.28	2.1293E-02
858.45	1.9375E-02
858.62	2.0459E-02
858.79	1.9817E-02
858.96	1.9807E-02
859.13	1.9957E-02
859.30	2.0712E-02
859.47	1.9473E-02
859.64	1.8218E-02
859.81	2.0498E-02
859.98	2.0551E-02
860.15	1.9829E-02
860.32	1.9225E-02
860.49	2.1876E-02
860.66	2.0247E-02
860.83	2.0551E-02
861.00	2.0162E-02
861.17	2.0326E-02
861.34	2.0369E-02
861.51	1.8153E-02
861.68	2.0334E-02
861.84	1.9797E-02
862.01	1.8857E-02
862.18	1.9231E-02
862.35	1.9887E-02
862.52	1.9902E-02
862.69	1.9170E-02
862.86	1.9630E-02
863.03	2.0032E-02
863.20	1.9524E-02
863.37	1.9682E-02
863.54	1.8405E-02
863.71	1.8370E-02
863.88	1.8978E-02
864.05	1.8619E-02
864.21	1.9265E-02
864.38	1.7594E-02
864.55	1.7280E-02
864.72	1.9524E-02
864.89	1.8322E-02
865.06	1.9284E-02
865.23	1.8002E-02
865.40	1.7176E-02
865.57	1.9175E-02
865.74	1.8322E-02
865.90	1.8572E-02
866.07	1.8407E-02
866.24	1.6876E-02
866.41	1.6590E-02
866.58	1.7054E-02
866.75	1.7217E-02
866.92	1.7286E-02
867.09	1.7344E-02
867.26	1.7366E-02
867.42	1.6212E-02
867.59	1.5485E-02
867.76	1.7629E-02
867.93	1.6784E-02
868.10	1.7199E-02
868.27	1.5255E-02
868.44	1.7217E-02
868.60	1.7640E-02
868.77	1.7403E-02
868.94	1.6843E-02
869.11	1.6696E-02
869.28	1.7728E-02
869.45	1.5378E-02
869.62	1.7332E-02
869.78	1.6727E-02
869.95	1.5613E-02
870.12	1.6373E-02
870.29	1.7089E-02
870.46	1.7407E-02
870.63	1.6299E-02
870.80	1.5381E-02
870.96	1.6307E-02
871.13	1.6039E-02
871.30	1.7125E-02
871.47	1.7256E-02
871.64	1.7147E-02
871.81	1.4455E-02
871.97	1.7786E-02
872.14	1.5274E-02
872.31	1.4882E-02
872.48	1.5845E-02
872.65	1.7123E-02
872.81	1.6021E-02
872.98	1.7467E-02
873.15	1.6832E-02
873.32	1.6853E-02
873.49	1.5970E-02
873.66	1.6711E-02
873.82	1.6023E-02
873.99	1.5287E-02
874.16	1.6355E-02
874.33	1.5591E-02
874.50	1.6639E-02
874.66	1.5887E-02
874.83	1.6131E-02
875.00	1.5804E-02
875.17	1.3991E-02
875.34	1.6543E-02
875.50	1.5378E-02
875.67	1.4955E-02
875.84	1.5235E-02
876.01	1.4752E-02
876.17	1.4157E-02
876.34	1.4115E-02
876.51	1.6361E-02
876.68	1.5762E-02
876.85	1.5360E-02
877.01	1.5924E-02
877.18	1.4539E-02
877.35	1.5006E-02
877.52	1.4875E-02
877.68	1.5555E-02
877.85	1.4568E-02
878.02	1.5041E-02
878.19	1.4480E-02
878.35	1.4884E-02
878.52	1.4724E-02
878.69	1.5025E-02
878.86	1.3642E-02
879.02	1.4301E-02
879.19	1.3149E-02
879.36	1.3879E-02
879.53	1.2302E-02
879.69	1.3623E-02
879.86	1.5123E-02
880.03	1.4806E-02
880.20	1.3458E-02
880.36	1.4983E-02
880.53	1.3122E-02
880.70	1.5113E-02
880.87	1.3714E-02
881.03	1.3662E-02
881.20	1.2051E-02
881.37	1.3339E-02
881.54	1.3743E-02
881.70	1.4597E-02
881.87	1.3031E-02
882.04	1.3031E-02
882.20	1.3183E-02
882.37	1.1963E-02
882.54	1.3697E-02
882.71	1.3665E-02
882.87	1.4642E-02
883.04	1.3195E-02
883.21	1.3155E-02
883.37	1.2643E-02
883.54	1.3219E-02
883.71	1.2742E-02
883.87	1.2053E-02
884.04	1.4133E-02
884.21	1.2676E-02
884.38	1.2130E-02
884.54	1.4332E-02
884.71	1.4348E-02
884.88	1.2675E-02
885.04	1.3237E-02
885.21	1.2334E-02
885.38	1.2301E-02
885.54	1.4660E-02
885.71	1.2359E-02
885.88	1.3060E-02
886.04	1.2671E-02
886.21	1.2681E-02
886.38	1.2009E-02
886.54	1.2141E-02
886.71	1.1234E-02
886.88	1.3224E-02
887.04	1.0560E-02
887.21	1.1466E-02
887.38	1.2606E-02
887.54	1.1977E-02
887.71	1.0601E-02
887.88	1.1948E-02
888.04	1.2867E-02
888.21	1.0992E-02
888.38	1.0327E-02
888.54	1.1328E-02
888.71	1.0776E-02
888.87	8.3502E-03
889.04	8.3502E-03
>>>>>End Processed Spectral Data<<<<<
