SpectraSuite Data File
++++++++++++++++++++++++++++++++++++
Date: Wed Jul 25 10:44:58 HST 2007
User: guest
Dark Spectrum Present: Yes
Reference Spectrum Present: No
Number of Sampled Component Spectra: 1
Spectrometers: USB4E01242
Integration Time (usec): 100000 (USB4E01242)
Spectra Averaged: 1 (USB4E01242)
Boxcar Smoothing: 10 (USB4E01242)
Correct for Electrical Dark: No (USB4E01242)
Strobe/Lamp Enabled: No (USB4E01242)
Correct for Detector Non-linearity: No (USB4E01242)
Correct for Stray Light: No (USB4E01242)
Number of Pixels in Processed Spectrum: 3648
>>>>>Begin Processed Spectral Data<<<<<
177.33	-0.0000E00
177.55	-0.0000E00
177.77	-0.0000E00
177.99	-0.0000E00
178.21	-0.0000E00
178.43	-0.0000E00
178.64	-0.0000E00
178.86	-0.0000E00
179.08	-0.0000E00
179.30	-0.0000E00
179.52	-0.0000E00
179.74	-0.0000E00
179.96	-0.0000E00
180.18	-0.0000E00
180.39	-0.0000E00
180.61	-0.0000E00
180.83	-0.0000E00
181.05	-0.0000E00
181.27	-0.0000E00
181.49	-0.0000E00
181.71	-0.0000E00
181.92	-0.0000E00
182.14	-0.0000E00
182.36	-0.0000E00
182.58	-0.0000E00
182.80	-0.0000E00
183.02	0.0000E00
183.23	-0.0000E00
183.45	-0.0000E00
183.67	-0.0000E00
183.89	-0.0000E00
184.11	0.0000E00
184.33	-0.0000E00
184.55	-0.0000E00
184.76	0.0000E00
184.98	-0.0000E00
185.20	-0.0000E00
185.42	-0.0000E00
185.64	-0.0000E00
185.86	0.0000E00
186.07	-0.0000E00
186.29	-0.0000E00
186.51	-0.0000E00
186.73	-0.0000E00
186.95	-0.0000E00
187.17	0.0000E00
187.38	-0.0000E00
187.60	-0.0000E00
187.82	-0.0000E00
188.04	-0.0000E00
188.26	-0.0000E00
188.47	-0.0000E00
188.69	-0.0000E00
188.91	-0.0000E00
189.13	-0.0000E00
189.35	-0.0000E00
189.57	-0.0000E00
189.78	0.0000E00
190.00	-0.0000E00
190.22	-0.0000E00
190.44	0.0000E00
190.66	-0.0000E00
190.87	-0.0000E00
191.09	-0.0000E00
191.31	-0.0000E00
191.53	-0.0000E00
191.75	-0.0000E00
191.97	-0.0000E00
192.18	0.0000E00
192.40	0.0000E00
192.62	-0.0000E00
192.84	-0.0000E00
193.06	-0.0000E00
193.27	-0.0000E00
193.49	-0.0000E00
193.71	-0.0000E00
193.93	-0.0000E00
194.15	-0.0000E00
194.36	0.0000E00
194.58	-0.0000E00
194.80	-0.0000E00
195.02	-0.0000E00
195.23	-0.0000E00
195.45	-0.0000E00
195.67	-0.0000E00
195.89	-0.0000E00
196.11	-0.0000E00
196.32	-0.0000E00
196.54	-0.0000E00
196.76	-0.0000E00
196.98	-0.0000E00
197.20	-0.0000E00
197.41	-0.0000E00
197.63	-0.0000E00
197.85	-0.0000E00
198.07	-0.0000E00
198.28	-0.0000E00
198.50	-0.0000E00
198.72	-0.0000E00
198.94	-0.0000E00
199.16	-0.0000E00
199.37	-0.0000E00
199.59	-0.0000E00
199.81	-0.0000E00
200.03	-0.0000E00
200.24	0.0000E00
200.46	-0.0000E00
200.68	-0.0000E00
200.90	-0.0000E00
201.11	-0.0000E00
201.33	-0.0000E00
201.55	-0.0000E00
201.77	-0.0000E00
201.98	-0.0000E00
202.20	-0.0000E00
202.42	-0.0000E00
202.64	-0.0000E00
202.86	-0.0000E00
203.07	-0.0000E00
203.29	-0.0000E00
203.51	-0.0000E00
203.73	-0.0000E00
203.94	-0.0000E00
204.16	-0.0000E00
204.38	0.0000E00
204.60	-0.0000E00
204.81	0.0000E00
205.03	-0.0000E00
205.25	-0.0000E00
205.46	0.0000E00
205.68	-0.0000E00
205.90	-0.0000E00
206.12	-0.0000E00
206.33	-0.0000E00
206.55	0.0000E00
206.77	-0.0000E00
206.99	-0.0000E00
207.20	-0.0000E00
207.42	-0.0000E00
207.64	-0.0000E00
207.86	-0.0000E00
208.07	-0.0000E00
208.29	-0.0000E00
208.51	-0.0000E00
208.72	-0.0000E00
208.94	0.0000E00
209.16	0.0000E00
209.38	-0.0000E00
209.59	-0.0000E00
209.81	-0.0000E00
210.03	-0.0000E00
210.25	-0.0000E00
210.46	-0.0000E00
210.68	-0.0000E00
210.90	-0.0000E00
211.11	-0.0000E00
211.33	-0.0000E00
211.55	-0.0000E00
211.77	-0.0000E00
211.98	0.0000E00
212.20	-0.0000E00
212.42	-0.0000E00
212.63	-0.0000E00
212.85	-0.0000E00
213.07	-0.0000E00
213.29	0.0000E00
213.50	-0.0000E00
213.72	-0.0000E00
213.94	-0.0000E00
214.15	-0.0000E00
214.37	-0.0000E00
214.59	-0.0000E00
214.80	-0.0000E00
215.02	-0.0000E00
215.24	-0.0000E00
215.45	-0.0000E00
215.67	-0.0000E00
215.89	-0.0000E00
216.11	-0.0000E00
216.32	-0.0000E00
216.54	-0.0000E00
216.76	-0.0000E00
216.97	-0.0000E00
217.19	-0.0000E00
217.41	-0.0000E00
217.62	-0.0000E00
217.84	-0.0000E00
218.06	-0.0000E00
218.27	-0.0000E00
218.49	0.0000E00
218.71	-0.0000E00
218.92	-0.0000E00
219.14	-0.0000E00
219.36	-0.0000E00
219.57	-0.0000E00
219.79	-0.0000E00
220.01	-0.0000E00
220.22	-0.0000E00
220.44	-0.0000E00
220.66	-0.0000E00
220.88	-0.0000E00
221.09	-0.0000E00
221.31	-0.0000E00
221.53	-0.0000E00
221.74	-0.0000E00
221.96	-0.0000E00
222.17	-0.0000E00
222.39	-0.0000E00
222.61	-0.0000E00
222.82	0.0000E00
223.04	0.0000E00
223.26	-0.0000E00
223.47	-0.0000E00
223.69	-0.0000E00
223.91	-0.0000E00
224.12	0.0000E00
224.34	-0.0000E00
224.56	-0.0000E00
224.77	-0.0000E00
224.99	-0.0000E00
225.21	-0.0000E00
225.42	-0.0000E00
225.64	0.0000E00
225.86	-0.0000E00
226.07	-0.0000E00
226.29	-0.0000E00
226.50	0.0000E00
226.72	-0.0000E00
226.94	-0.0000E00
227.15	-0.0000E00
227.37	0.0000E00
227.59	-0.0000E00
227.80	-0.0000E00
228.02	-0.0000E00
228.24	-0.0000E00
228.45	-0.0000E00
228.67	-0.0000E00
228.88	0.0000E00
229.10	-0.0000E00
229.32	-0.0000E00
229.53	0.0000E00
229.75	-0.0000E00
229.97	-0.0000E00
230.18	-0.0000E00
230.40	-0.0000E00
230.61	-0.0000E00
230.83	-0.0000E00
231.05	-0.0000E00
231.26	0.0000E00
231.48	-0.0000E00
231.70	-0.0000E00
231.91	-0.0000E00
232.13	-0.0000E00
232.34	-0.0000E00
232.56	0.0000E00
232.78	-0.0000E00
232.99	0.0000E00
233.21	-0.0000E00
233.42	-0.0000E00
233.64	-0.0000E00
233.86	-0.0000E00
234.07	-0.0000E00
234.29	-0.0000E00
234.50	-0.0000E00
234.72	-0.0000E00
234.94	-0.0000E00
235.15	-0.0000E00
235.37	-0.0000E00
235.58	-0.0000E00
235.80	-0.0000E00
236.02	0.0000E00
236.23	-0.0000E00
236.45	-0.0000E00
236.66	-0.0000E00
236.88	-0.0000E00
237.10	-0.0000E00
237.31	-0.0000E00
237.53	-0.0000E00
237.74	-0.0000E00
237.96	-0.0000E00
238.17	-0.0000E00
238.39	-0.0000E00
238.61	-0.0000E00
238.82	-0.0000E00
239.04	-0.0000E00
239.25	-0.0000E00
239.47	-0.0000E00
239.69	-0.0000E00
239.90	-0.0000E00
240.12	0.0000E00
240.33	-0.0000E00
240.55	-0.0000E00
240.76	0.0000E00
240.98	-0.0000E00
241.20	-0.0000E00
241.41	-0.0000E00
241.63	-0.0000E00
241.84	-0.0000E00
242.06	-0.0000E00
242.27	-0.0000E00
242.49	-0.0000E00
242.70	-0.0000E00
242.92	0.0000E00
243.14	0.0000E00
243.35	-0.0000E00
243.57	-0.0000E00
243.78	-0.0000E00
244.00	-0.0000E00
244.21	-0.0000E00
244.43	0.0000E00
244.64	-0.0000E00
244.86	-0.0000E00
245.08	-0.0000E00
245.29	-0.0000E00
245.51	-0.0000E00
245.72	-0.0000E00
245.94	-0.0000E00
246.15	-0.0000E00
246.37	-0.0000E00
246.58	-0.0000E00
246.80	-0.0000E00
247.01	0.0000E00
247.23	-0.0000E00
247.45	0.0000E00
247.66	0.0000E00
247.88	-0.0000E00
248.09	-0.0000E00
248.31	-0.0000E00
248.52	-0.0000E00
248.74	-0.0000E00
248.95	0.0000E00
249.17	-0.0000E00
249.38	-0.0000E00
249.60	-0.0000E00
249.81	0.0000E00
250.03	0.0000E00
250.24	-0.0000E00
250.46	0.0000E00
250.67	-0.0000E00
250.89	-0.0000E00
251.10	-0.0000E00
251.32	-0.0000E00
251.53	-0.0000E00
251.75	-0.0000E00
251.97	-0.0000E00
252.18	-0.0000E00
252.40	-0.0000E00
252.61	0.0000E00
252.83	-0.0000E00
253.04	-0.0000E00
253.26	-0.0000E00
253.47	-0.0000E00
253.69	-0.0000E00
253.90	-0.0000E00
254.12	-0.0000E00
254.33	-0.0000E00
254.55	-0.0000E00
254.76	-0.0000E00
254.98	0.0000E00
255.19	-0.0000E00
255.41	-0.0000E00
255.62	-0.0000E00
255.84	-0.0000E00
256.05	-0.0000E00
256.27	-0.0000E00
256.48	-0.0000E00
256.70	-0.0000E00
256.91	-0.0000E00
257.13	-0.0000E00
257.34	-0.0000E00
257.55	0.0000E00
257.77	-0.0000E00
257.98	-0.0000E00
258.20	-0.0000E00
258.41	0.0000E00
258.63	-0.0000E00
258.84	-0.0000E00
259.06	-0.0000E00
259.27	-0.0000E00
259.49	0.0000E00
259.70	0.0000E00
259.92	-0.0000E00
260.13	0.0000E00
260.35	-0.0000E00
260.56	-0.0000E00
260.78	-0.0000E00
260.99	-0.0000E00
261.21	-0.0000E00
261.42	-0.0000E00
261.63	-0.0000E00
261.85	-0.0000E00
262.06	-0.0000E00
262.28	-0.0000E00
262.49	-0.0000E00
262.71	-0.0000E00
262.92	-0.0000E00
263.14	-0.0000E00
263.35	-0.0000E00
263.57	-0.0000E00
263.78	-0.0000E00
264.00	-0.0000E00
264.21	-0.0000E00
264.42	-0.0000E00
264.64	-0.0000E00
264.85	-0.0000E00
265.07	-0.0000E00
265.28	-0.0000E00
265.50	-0.0000E00
265.71	-0.0000E00
265.93	-0.0000E00
266.14	-0.0000E00
266.35	0.0000E00
266.57	-0.0000E00
266.78	0.0000E00
267.00	-0.0000E00
267.21	-0.0000E00
267.43	-0.0000E00
267.64	-0.0000E00
267.85	-0.0000E00
268.07	-0.0000E00
268.28	-0.0000E00
268.50	-0.0000E00
268.71	0.0000E00
268.93	-0.0000E00
269.14	-0.0000E00
269.35	-0.0000E00
269.57	-0.0000E00
269.78	-0.0000E00
270.00	-0.0000E00
270.21	0.0000E00
270.43	-0.0000E00
270.64	0.0000E00
270.85	-0.0000E00
271.07	-0.0000E00
271.28	-0.0000E00
271.50	-0.0000E00
271.71	-0.0000E00
271.92	-0.0000E00
272.14	-0.0000E00
272.35	0.0000E00
272.57	-0.0000E00
272.78	-0.0000E00
272.99	0.0000E00
273.21	-0.0000E00
273.42	-0.0000E00
273.64	-0.0000E00
273.85	-0.0000E00
274.07	0.0000E00
274.28	-0.0000E00
274.49	-0.0000E00
274.71	-0.0000E00
274.92	-0.0000E00
275.13	-0.0000E00
275.35	-0.0000E00
275.56	-0.0000E00
275.78	0.0000E00
275.99	-0.0000E00
276.20	-0.0000E00
276.42	-0.0000E00
276.63	-0.0000E00
276.85	-0.0000E00
277.06	-0.0000E00
277.27	-0.0000E00
277.49	-0.0000E00
277.70	-0.0000E00
277.92	-0.0000E00
278.13	0.0000E00
278.34	0.0000E00
278.56	0.0000E00
278.77	-0.0000E00
278.98	-0.0000E00
279.20	-0.0000E00
279.41	-0.0000E00
279.63	0.0000E00
279.84	-0.0000E00
280.05	-0.0000E00
280.27	-0.0000E00
280.48	-0.0000E00
280.69	-0.0000E00
280.91	-0.0000E00
281.12	-0.0000E00
281.33	-0.0000E00
281.55	-0.0000E00
281.76	-0.0000E00
281.98	-0.0000E00
282.19	-0.0000E00
282.40	0.0000E00
282.62	-0.0000E00
282.83	-0.0000E00
283.04	-0.0000E00
283.26	0.0000E00
283.47	-0.0000E00
283.68	-0.0000E00
283.90	-0.0000E00
284.11	-0.0000E00
284.32	-0.0000E00
284.54	-0.0000E00
284.75	-0.0000E00
284.96	-0.0000E00
285.18	-0.0000E00
285.39	-0.0000E00
285.60	-0.0000E00
285.82	-0.0000E00
286.03	-0.0000E00
286.24	-0.0000E00
286.46	0.0000E00
286.67	-0.0000E00
286.88	-0.0000E00
287.10	-0.0000E00
287.31	-0.0000E00
287.52	-0.0000E00
287.74	-0.0000E00
287.95	-0.0000E00
288.16	-0.0000E00
288.38	-0.0000E00
288.59	-0.0000E00
288.80	-0.0000E00
289.02	-0.0000E00
289.23	-0.0000E00
289.44	-0.0000E00
289.66	-0.0000E00
289.87	-0.0000E00
290.08	0.0000E00
290.30	-0.0000E00
290.51	-0.0000E00
290.72	-0.0000E00
290.94	0.0000E00
291.15	-0.0000E00
291.36	0.0000E00
291.57	0.0000E00
291.79	-0.0000E00
292.00	-0.0000E00
292.21	-0.0000E00
292.43	-0.0000E00
292.64	-0.0000E00
292.85	-0.0000E00
293.07	-0.0000E00
293.28	-0.0000E00
293.49	-0.0000E00
293.70	0.0000E00
293.92	-0.0000E00
294.13	-0.0000E00
294.34	0.0000E00
294.56	-0.0000E00
294.77	-0.0000E00
294.98	-0.0000E00
295.20	-0.0000E00
295.41	-0.0000E00
295.62	-0.0000E00
295.83	-0.0000E00
296.05	0.0000E00
296.26	-0.0000E00
296.47	0.0000E00
296.69	-0.0000E00
296.90	-0.0000E00
297.11	-0.0000E00
297.32	-0.0000E00
297.54	-0.0000E00
297.75	-0.0000E00
297.96	-0.0000E00
298.17	-0.0000E00
298.39	-0.0000E00
298.60	-0.0000E00
298.81	-0.0000E00
299.03	-0.0000E00
299.24	0.0000E00
299.45	-0.0000E00
299.66	0.0000E00
299.88	-0.0000E00
300.09	-1.1317E-04
300.30	-1.9055E-04
300.51	-2.6709E-06
300.73	-1.4192E-04
300.94	-9.2232E-05
301.15	-3.6793E-05
301.36	-2.2065E-04
301.58	-1.3534E-04
301.79	1.0967E-04
302.00	-1.2226E-04
302.21	-1.3100E-04
302.43	2.6150E-06
302.64	-1.6647E-04
302.85	6.7297E-06
303.06	-1.8561E-04
303.28	-3.5416E-05
303.49	-1.8348E-04
303.70	6.6069E-05
303.91	-1.2411E-04
304.13	-1.9342E-04
304.34	-7.2080E-05
304.55	9.2276E-05
304.76	-2.2039E-04
304.98	-1.1741E-04
305.19	4.4919E-05
305.40	-1.9422E-04
305.61	-1.9309E-05
305.82	-1.5698E-04
306.04	6.1535E-06
306.25	-2.2218E-04
306.46	2.9076E-05
306.67	-1.6438E-04
306.89	-1.6141E-04
307.10	-1.1458E-05
307.31	-4.4180E-05
307.52	-8.7502E-05
307.74	6.2423E-05
307.95	5.0666E-05
308.16	-2.5160E-04
308.37	-8.2959E-05
308.58	-1.4576E-04
308.80	-2.9025E-06
309.01	-5.9487E-05
309.22	-2.5824E-04
309.43	-1.7876E-04
309.64	-3.3839E-05
309.86	7.6275E-05
310.07	-7.3236E-05
310.28	-1.0978E-05
310.49	1.4129E-05
310.70	-1.7643E-04
310.92	3.2471E-05
311.13	-5.8003E-05
311.34	-4.3118E-05
311.55	-2.9789E-05
311.76	-5.0322E-05
311.98	1.0785E-04
312.19	-8.1301E-05
312.40	-1.6884E-04
312.61	-1.2510E-04
312.82	-1.5923E-05
313.04	-1.3661E-04
313.25	-8.6615E-06
313.46	-1.2903E-04
313.67	-1.1953E-04
313.88	-7.6518E-05
314.10	-1.3154E-04
314.31	-1.2816E-04
314.52	-1.3085E-04
314.73	-1.0238E-04
314.94	-3.6342E-06
315.16	2.7019E-05
315.37	1.1121E-04
315.58	-1.3511E-04
315.79	8.9463E-06
316.00	4.5903E-05
316.21	9.8745E-05
316.43	-1.3286E-04
316.64	-5.6508E-05
316.85	-7.0586E-05
317.06	2.6900E-05
317.27	8.6380E-05
317.48	-2.8106E-05
317.70	-2.9669E-06
317.91	-3.3322E-05
318.12	7.2928E-05
318.33	-6.4072E-05
318.54	-2.2551E-05
318.75	6.8015E-06
318.97	9.8741E-05
319.18	9.4842E-06
319.39	-2.4241E-05
319.60	-9.7922E-06
319.81	6.1712E-05
320.02	-5.3806E-05
320.24	-5.4722E-05
320.45	4.8273E-06
320.66	-1.5630E-04
320.87	-3.1721E-05
321.08	6.0823E-05
321.29	4.9451E-05
321.50	-5.6583E-05
321.72	-8.5874E-05
321.93	8.5127E-05
322.14	-2.0439E-05
322.35	8.7037E-05
322.56	1.0075E-04
322.77	1.4528E-04
322.98	-8.6618E-07
323.20	1.2728E-04
323.41	-6.3531E-05
323.62	-8.0691E-05
323.83	2.7879E-05
324.04	-7.0883E-05
324.25	-6.8193E-05
324.46	4.5383E-06
324.67	2.9628E-05
324.89	-7.0563E-06
325.10	-3.5401E-05
325.31	1.1964E-04
325.52	5.4983E-05
325.73	-6.3784E-05
325.94	-1.7076E-05
326.15	-1.5519E-04
326.36	7.8728E-05
326.58	1.3890E-04
326.79	9.9905E-05
327.00	-1.9478E-04
327.21	7.3001E-05
327.42	5.5237E-05
327.63	5.4618E-05
327.84	1.0019E-05
328.05	1.2743E-04
328.26	-1.8991E-04
328.48	3.2773E-05
328.69	1.1172E-04
328.90	3.2091E-06
329.11	-4.3733E-06
329.32	7.1070E-06
329.53	-8.7600E-05
329.74	-8.5116E-06
329.95	8.7353E-05
330.16	3.3885E-05
330.37	-3.8484E-05
330.59	1.9563E-04
330.80	8.7438E-05
331.01	1.0101E-04
331.22	8.1812E-05
331.43	-5.8713E-05
331.64	-6.7807E-05
331.85	1.6346E-04
332.06	1.3051E-04
332.27	-7.2485E-05
332.48	1.1947E-04
332.69	1.4631E-04
332.91	8.5398E-05
333.12	6.0503E-05
333.33	2.9585E-04
333.54	-2.9370E-05
333.75	-8.4177E-05
333.96	-1.4707E-05
334.17	-3.9818E-05
334.38	-4.5320E-06
334.59	1.4398E-04
334.80	1.2374E-04
335.01	1.0295E-04
335.22	2.6176E-05
335.43	6.1171E-06
335.64	4.9294E-05
335.86	1.1798E-04
336.07	1.0166E-04
336.28	-8.0928E-05
336.49	1.5868E-04
336.70	-2.1690E-05
336.91	-1.1775E-05
337.12	-5.0128E-05
337.33	1.8050E-04
337.54	4.2710E-05
337.75	-9.6690E-06
337.96	1.4983E-04
338.17	1.3479E-04
338.38	-4.1366E-05
338.59	1.6746E-04
338.80	-7.9223E-05
339.01	1.9931E-04
339.22	1.5926E-04
339.43	1.7331E-04
339.65	6.4094E-05
339.86	-3.7827E-05
340.07	-4.8324E-05
340.28	1.0529E-04
340.49	6.5906E-05
340.70	1.0942E-04
340.91	-5.7804E-05
341.12	-1.0920E-04
341.33	7.4271E-05
341.54	1.4067E-04
341.75	-9.8666E-06
341.96	4.8496E-05
342.17	1.2151E-04
342.38	2.4988E-05
342.59	7.4681E-05
342.80	-6.7160E-05
343.01	6.3807E-05
343.22	3.6173E-05
343.43	-1.3090E-05
343.64	-7.3393E-05
343.85	7.8474E-05
344.06	-1.5231E-04
344.27	9.2570E-05
344.48	2.5964E-04
344.69	1.1126E-04
344.90	1.5578E-04
345.11	7.5642E-05
345.32	4.4794E-05
345.53	-1.4754E-04
345.74	1.6937E-04
345.95	-6.1322E-05
346.16	9.0146E-05
346.37	9.0907E-05
346.58	7.9448E-05
346.79	-5.1271E-05
347.00	1.7627E-04
347.21	2.0838E-04
347.42	2.6243E-05
347.63	-8.9512E-05
347.84	1.0331E-04
348.05	1.8606E-04
348.26	5.7235E-05
348.47	1.0903E-04
348.68	7.5679E-05
348.89	-1.4341E-04
349.10	1.0946E-05
349.31	8.4623E-05
349.52	-3.4757E-05
349.73	3.1177E-05
349.94	5.2645E-05
350.15	-9.1336E-05
350.36	2.1001E-04
350.57	1.4203E-04
350.78	1.6684E-04
350.99	1.5816E-04
351.20	2.1620E-05
351.41	1.5106E-04
351.62	2.8051E-05
351.83	4.4684E-05
352.04	3.6573E-05
352.25	1.4388E-04
352.46	6.4610E-05
352.67	-1.5274E-05
352.88	2.4067E-04
353.09	-1.6727E-04
353.30	4.7443E-05
353.51	8.4199E-05
353.72	2.4689E-04
353.93	5.3047E-05
354.14	-4.7271E-05
354.35	2.1743E-04
354.56	4.6618E-05
354.77	3.0706E-04
354.98	-9.8305E-05
355.19	5.3575E-05
355.39	9.1499E-05
355.60	4.2684E-05
355.81	1.3799E-04
356.02	2.1677E-04
356.23	-4.2517E-05
356.44	-8.9826E-05
356.65	1.8708E-04
356.86	3.3721E-05
357.07	9.9584E-06
357.28	1.8119E-04
357.49	9.2710E-05
357.70	1.7152E-04
357.91	-4.8977E-05
358.12	-4.9629E-05
358.33	1.1199E-04
358.54	1.6902E-04
358.75	5.0108E-05
358.96	1.5303E-04
359.16	-1.2032E-04
359.37	1.9668E-04
359.58	8.8999E-05
359.79	1.9836E-05
360.00	3.8706E-05
360.21	6.3346E-05
360.42	1.4842E-05
360.63	3.6401E-04
360.84	2.2148E-04
361.05	-1.1561E-04
361.26	7.0582E-05
361.47	2.2694E-04
361.68	4.0230E-05
361.88	1.2623E-04
362.09	7.9537E-06
362.30	1.1871E-04
362.51	4.2779E-05
362.72	2.4314E-04
362.93	6.6288E-05
363.14	1.0317E-04
363.35	3.9386E-05
363.56	5.0022E-06
363.77	2.1710E-04
363.98	1.4988E-04
364.18	2.8273E-04
364.39	2.0866E-04
364.60	1.0668E-04
364.81	1.4905E-04
365.02	1.6028E-04
365.23	1.9133E-04
365.44	1.7466E-04
365.65	1.3443E-04
365.86	-5.5034E-05
366.07	2.8154E-04
366.27	1.6767E-04
366.48	2.3879E-04
366.69	1.6778E-04
366.90	2.6857E-04
367.11	2.1683E-04
367.32	2.4287E-04
367.53	1.5470E-04
367.74	8.0468E-05
367.95	8.0328E-05
368.15	1.5863E-04
368.36	2.3937E-04
368.57	-6.7139E-06
368.78	3.3889E-04
368.99	1.3606E-04
369.20	1.0711E-04
369.41	2.6820E-04
369.62	1.7993E-04
369.82	3.6363E-04
370.03	1.8529E-04
370.24	2.7985E-04
370.45	1.6674E-04
370.66	6.6037E-05
370.87	8.2847E-05
371.08	1.2664E-04
371.28	1.3345E-04
371.49	1.5467E-04
371.70	1.3864E-04
371.91	1.4632E-04
372.12	5.0337E-05
372.33	6.7940E-05
372.54	1.6031E-04
372.74	1.3684E-04
372.95	-7.5681E-05
373.16	1.8939E-04
373.37	2.2400E-04
373.58	-5.9871E-05
373.79	1.8316E-04
374.00	8.8506E-05
374.20	2.8536E-04
374.41	2.4080E-04
374.62	1.0931E-04
374.83	9.8539E-05
375.04	1.3724E-04
375.25	1.5212E-04
375.45	-1.4801E-04
375.66	1.8104E-04
375.87	1.4398E-04
376.08	2.3613E-04
376.29	2.0387E-04
376.50	1.5992E-04
376.70	1.0348E-04
376.91	2.1325E-04
377.12	2.2692E-04
377.33	1.2246E-05
377.54	6.3730E-05
377.75	2.3633E-04
377.95	1.1023E-04
378.16	1.5609E-04
378.37	4.5540E-05
378.58	2.2852E-04
378.79	-3.1115E-05
379.00	2.6383E-04
379.20	9.1550E-05
379.41	1.9241E-04
379.62	2.4838E-04
379.83	1.3779E-04
380.04	1.9152E-04
380.24	1.2406E-04
380.45	-4.5096E-06
380.66	6.0137E-05
380.87	1.6302E-04
381.08	1.9232E-04
381.28	4.1904E-05
381.49	1.8031E-04
381.70	4.1049E-05
381.91	9.8207E-05
382.12	1.8751E-04
382.32	7.1880E-05
382.53	1.9233E-04
382.74	1.4812E-05
382.95	8.7033E-05
383.16	1.4891E-04
383.36	-1.0129E-04
383.57	1.2136E-04
383.78	1.8797E-04
383.99	1.8171E-05
384.20	8.0479E-05
384.40	8.4917E-05
384.61	2.1259E-04
384.82	2.5634E-04
385.03	1.2449E-04
385.23	1.5270E-04
385.44	1.4902E-04
385.65	2.2776E-04
385.86	3.0708E-05
386.07	3.6975E-04
386.27	-6.0514E-05
386.48	9.4021E-05
386.69	1.9046E-04
386.90	-1.8354E-04
387.10	3.6441E-05
387.31	1.7865E-04
387.52	2.1569E-05
387.73	9.7091E-05
387.94	1.8588E-04
388.14	-8.7260E-05
388.35	1.2358E-05
388.56	3.1966E-04
388.77	1.5801E-04
388.97	1.7566E-04
389.18	2.7447E-04
389.39	9.1428E-05
389.60	1.6102E-04
389.80	3.0617E-04
390.01	2.3206E-04
390.22	2.2269E-04
390.43	1.8250E-05
390.63	1.0005E-04
390.84	9.9964E-05
391.05	3.3750E-04
391.26	1.4133E-04
391.46	1.0812E-04
391.67	1.1195E-04
391.88	-5.0801E-05
392.09	-4.1886E-05
392.29	2.0362E-04
392.50	4.7132E-05
392.71	1.3655E-04
392.92	1.8785E-04
393.12	1.6016E-04
393.33	2.5832E-04
393.54	9.5839E-05
393.74	-4.6493E-06
393.95	6.6970E-05
394.16	2.5065E-04
394.37	1.0331E-04
394.57	1.1126E-04
394.78	2.1793E-04
394.99	1.2796E-04
395.19	9.0107E-05
395.40	7.4209E-05
395.61	6.3669E-05
395.82	2.2967E-04
396.02	9.6590E-05
396.23	2.1383E-04
396.44	2.3005E-04
396.65	9.9771E-05
396.85	2.6188E-04
397.06	1.7621E-04
397.27	2.1995E-04
397.47	3.0576E-04
397.68	1.8598E-04
397.89	1.0390E-04
398.09	4.1286E-05
398.30	1.5115E-04
398.51	5.8559E-06
398.72	1.3893E-04
398.92	2.6836E-04
399.13	2.5850E-04
399.34	3.6691E-04
399.54	3.7468E-04
399.75	2.8673E-04
399.96	1.2145E-04
400.16	1.1013E-04
400.37	2.5945E-04
400.58	2.3340E-04
400.78	2.9362E-04
400.99	1.9669E-04
401.20	3.6648E-04
401.41	3.0001E-04
401.61	1.4288E-04
401.82	2.8224E-04
402.03	1.6178E-04
402.23	1.5388E-04
402.44	3.3952E-04
402.65	2.4251E-04
402.85	2.6853E-04
403.06	2.7701E-04
403.27	3.2511E-04
403.47	3.0961E-04
403.68	2.0236E-04
403.89	3.4890E-04
404.09	2.4732E-04
404.30	1.3406E-04
404.51	3.5549E-04
404.71	3.4092E-04
404.92	4.3832E-04
405.13	1.0490E-04
405.33	2.1422E-04
405.54	2.3583E-04
405.75	3.0238E-04
405.95	2.7363E-04
406.16	5.4489E-05
406.37	2.7306E-04
406.57	2.7588E-04
406.78	3.3316E-04
406.99	2.9333E-04
407.19	3.6669E-04
407.40	4.2950E-04
407.60	3.6406E-04
407.81	3.3785E-04
408.02	1.9336E-04
408.22	2.2260E-04
408.43	3.9629E-04
408.64	3.2393E-04
408.84	3.0250E-04
409.05	1.3424E-04
409.26	3.9026E-04
409.46	4.1207E-04
409.67	2.7803E-04
409.87	3.6727E-04
410.08	2.8929E-04
410.29	4.6629E-04
410.49	1.4533E-04
410.70	3.6005E-04
410.91	2.9350E-04
411.11	4.2832E-04
411.32	3.3485E-04
411.52	1.6605E-04
411.73	4.0983E-04
411.94	3.6488E-04
412.14	4.1821E-04
412.35	2.8941E-04
412.56	4.3115E-04
412.76	4.0696E-04
412.97	2.7919E-04
413.17	3.5815E-04
413.38	4.6116E-04
413.59	2.5535E-04
413.79	3.0703E-04
414.00	3.7774E-04
414.20	4.3181E-04
414.41	2.2061E-04
414.62	3.9369E-04
414.82	2.8706E-04
415.03	1.7401E-04
415.23	3.9261E-04
415.44	2.0817E-04
415.65	3.5523E-04
415.85	2.0747E-04
416.06	3.9184E-04
416.26	3.4790E-04
416.47	3.7255E-04
416.68	4.5956E-04
416.88	5.1245E-04
417.09	1.1217E-04
417.29	3.2570E-04
417.50	4.0506E-04
417.71	3.5924E-04
417.91	3.1107E-04
418.12	2.9049E-04
418.32	4.3862E-04
418.53	4.3483E-04
418.73	2.7797E-04
418.94	2.9558E-04
419.15	2.6464E-04
419.35	4.7814E-04
419.56	3.7720E-04
419.76	2.0060E-04
419.97	5.1194E-04
420.17	3.8057E-04
420.38	1.4759E-04
420.59	4.5227E-04
420.79	4.9341E-04
421.00	3.3173E-04
421.20	1.4220E-04
421.41	3.1229E-04
421.61	2.6184E-04
421.82	3.6512E-04
422.02	3.1006E-04
422.23	6.9532E-05
422.44	4.8252E-04
422.64	2.6412E-04
422.85	3.0750E-04
423.05	3.3473E-04
423.26	3.5772E-04
423.46	3.2311E-04
423.67	2.5675E-04
423.87	2.7466E-04
424.08	2.2876E-04
424.29	2.4307E-04
424.49	3.9796E-04
424.70	1.4616E-04
424.90	3.5262E-04
425.11	3.6976E-04
425.31	3.3141E-04
425.52	4.1086E-04
425.72	2.6374E-04
425.93	3.2616E-04
426.13	2.4515E-04
426.34	2.8354E-04
426.54	2.9513E-04
426.75	3.2475E-04
426.95	3.4839E-04
427.16	3.9560E-04
427.36	3.7760E-04
427.57	2.7584E-04
427.78	2.6885E-04
427.98	2.8319E-04
428.19	3.5291E-04
428.39	2.4219E-04
428.60	2.6460E-04
428.80	2.9936E-04
429.01	4.0802E-04
429.21	1.5677E-04
429.42	5.0371E-04
429.62	4.6462E-04
429.83	3.5054E-04
430.03	2.1404E-04
430.24	4.2560E-04
430.44	2.3938E-04
430.65	3.6995E-04
430.85	3.9293E-04
431.06	2.4911E-04
431.26	4.1374E-04
431.47	1.5861E-04
431.67	5.0887E-04
431.88	3.8533E-04
432.08	4.3504E-04
432.29	4.3571E-04
432.49	2.9473E-04
432.70	2.9383E-04
432.90	5.0153E-04
433.11	4.4434E-04
433.31	1.6672E-04
433.52	3.7186E-04
433.72	2.8413E-04
433.93	3.5030E-04
434.13	3.2315E-04
434.34	5.2917E-04
434.54	2.6321E-04
434.74	3.4262E-04
434.95	3.7581E-04
435.15	3.2620E-04
435.36	3.9576E-04
435.56	2.6642E-04
435.77	4.2296E-04
435.97	2.6093E-04
436.18	6.4225E-04
436.38	4.4784E-04
436.59	3.4107E-04
436.79	5.0577E-04
437.00	4.6503E-04
437.20	3.7871E-04
437.41	3.4534E-04
437.61	4.3916E-04
437.81	4.1345E-04
438.02	3.9361E-04
438.22	4.6614E-04
438.43	2.9416E-04
438.63	5.8313E-04
438.84	3.8564E-04
439.04	3.9387E-04
439.25	4.4246E-04
439.45	3.1017E-04
439.66	3.2777E-04
439.86	3.6283E-04
440.06	5.7209E-04
440.27	3.5678E-04
440.47	2.6096E-04
440.68	5.1120E-04
440.88	4.1748E-04
441.09	5.1637E-04
441.29	5.0512E-04
441.49	4.6737E-04
441.70	5.9771E-04
441.90	4.7963E-04
442.11	5.5193E-04
442.31	6.2765E-04
442.52	4.8312E-04
442.72	4.5251E-04
442.92	3.4889E-04
443.13	5.4063E-04
443.33	3.0396E-04
443.54	4.5807E-04
443.74	4.4402E-04
443.95	5.5086E-04
444.15	4.7845E-04
444.35	5.8073E-04
444.56	4.4942E-04
444.76	3.5612E-04
444.97	6.8165E-04
445.17	5.5539E-04
445.37	7.1791E-04
445.58	4.3889E-04
445.78	5.1076E-04
445.99	3.7019E-04
446.19	3.8506E-04
446.39	4.2218E-04
446.60	3.3016E-04
446.80	3.4003E-04
447.01	5.0166E-04
447.21	6.2171E-04
447.41	3.8122E-04
447.62	5.7055E-04
447.82	4.7478E-04
448.03	5.5194E-04
448.23	5.2214E-04
448.43	5.3415E-04
448.64	5.9265E-04
448.84	5.5431E-04
449.05	4.7093E-04
449.25	5.7807E-04
449.45	4.4190E-04
449.66	4.9502E-04
449.86	5.0156E-04
450.07	3.7972E-04
450.27	5.0575E-04
450.47	4.2249E-04
450.68	4.9912E-04
450.88	4.0071E-04
451.08	4.7118E-04
451.29	5.1080E-04
451.49	5.3660E-04
451.70	5.0190E-04
451.90	5.7384E-04
452.10	5.4068E-04
452.31	3.6571E-04
452.51	5.4694E-04
452.71	5.0278E-04
452.92	4.7999E-04
453.12	5.9684E-04
453.32	4.9215E-04
453.53	2.7692E-04
453.73	3.1280E-04
453.93	3.3131E-04
454.14	5.6760E-04
454.34	5.2309E-04
454.55	5.6889E-04
454.75	5.1810E-04
454.95	3.9186E-04
455.16	6.6673E-04
455.36	4.4252E-04
455.56	6.7119E-04
455.77	6.0703E-04
455.97	5.4554E-04
456.17	4.4725E-04
456.38	5.4682E-04
456.58	6.7526E-04
456.78	5.0883E-04
456.99	3.5651E-04
457.19	4.9915E-04
457.39	4.8289E-04
457.60	5.4408E-04
457.80	5.1103E-04
458.00	4.6919E-04
458.21	6.3134E-04
458.41	5.9067E-04
458.61	4.7568E-04
458.82	4.5984E-04
459.02	3.9210E-04
459.22	6.5597E-04
459.43	5.9314E-04
459.63	5.3652E-04
459.83	4.4086E-04
460.03	5.3649E-04
460.24	6.0027E-04
460.44	4.5461E-04
460.64	3.7678E-04
460.85	5.5435E-04
461.05	5.1116E-04
461.25	5.4524E-04
461.46	4.7083E-04
461.66	3.9234E-04
461.86	5.1974E-04
462.07	5.9257E-04
462.27	5.2542E-04
462.47	6.3638E-04
462.67	5.0639E-04
462.88	6.0214E-04
463.08	3.9392E-04
463.28	5.2687E-04
463.49	6.2454E-04
463.69	5.5743E-04
463.89	5.6824E-04
464.09	5.8989E-04
464.30	4.9758E-04
464.50	6.4192E-04
464.70	6.5579E-04
464.91	4.2409E-04
465.11	4.5439E-04
465.31	4.5991E-04
465.51	5.7982E-04
465.72	5.4630E-04
465.92	5.3221E-04
466.12	4.3688E-04
466.33	5.7073E-04
466.53	5.4608E-04
466.73	4.9131E-04
466.93	6.0626E-04
467.14	4.6675E-04
467.34	7.6525E-04
467.54	6.1604E-04
467.74	6.1032E-04
467.95	5.7343E-04
468.15	5.1074E-04
468.35	6.2018E-04
468.55	6.8207E-04
468.76	6.5284E-04
468.96	4.1043E-04
469.16	5.6312E-04
469.37	5.3837E-04
469.57	5.8581E-04
469.77	4.8372E-04
469.97	5.6219E-04
470.18	6.4042E-04
470.38	6.5341E-04
470.58	5.7390E-04
470.78	6.2946E-04
470.99	6.0710E-04
471.19	5.0411E-04
471.39	5.7802E-04
471.59	4.2221E-04
471.79	5.1445E-04
472.00	5.4841E-04
472.20	5.9718E-04
472.40	4.6881E-04
472.60	4.9732E-04
472.81	6.7455E-04
473.01	6.2233E-04
473.21	5.0350E-04
473.41	3.4261E-04
473.62	6.0571E-04
473.82	6.7169E-04
474.02	5.2257E-04
474.22	5.3589E-04
474.42	7.2439E-04
474.63	5.9732E-04
474.83	5.3851E-04
475.03	5.4514E-04
475.23	6.0196E-04
475.44	5.4103E-04
475.64	5.3693E-04
475.84	5.9755E-04
476.04	5.4229E-04
476.24	5.8194E-04
476.45	5.9590E-04
476.65	5.0754E-04
476.85	4.9167E-04
477.05	5.9413E-04
477.25	6.4278E-04
477.46	5.6492E-04
477.66	5.3613E-04
477.86	6.2421E-04
478.06	5.8431E-04
478.26	6.1239E-04
478.47	5.6971E-04
478.67	7.4752E-04
478.87	5.5530E-04
479.07	4.7046E-04
479.27	5.9144E-04
479.47	6.2849E-04
479.68	6.1601E-04
479.88	6.3541E-04
480.08	5.9828E-04
480.28	6.3054E-04
480.48	6.0996E-04
480.69	6.7057E-04
480.89	5.8202E-04
481.09	6.1597E-04
481.29	7.3480E-04
481.49	4.3855E-04
481.69	6.5865E-04
481.90	6.0444E-04
482.10	6.3045E-04
482.30	6.9266E-04
482.50	6.6210E-04
482.70	5.8948E-04
482.90	6.0876E-04
483.11	6.2441E-04
483.31	6.3579E-04
483.51	4.8523E-04
483.71	5.3052E-04
483.91	5.6211E-04
484.11	5.8227E-04
484.32	5.8116E-04
484.52	6.3668E-04
484.72	6.2641E-04
484.92	6.0260E-04
485.12	5.8715E-04
485.32	5.7782E-04
485.52	5.6519E-04
485.73	4.8688E-04
485.93	4.7427E-04
486.13	4.9600E-04
486.33	5.2841E-04
486.53	5.7989E-04
486.73	5.9870E-04
486.93	5.4426E-04
487.14	6.6704E-04
487.34	6.3366E-04
487.54	6.2364E-04
487.74	6.6570E-04
487.94	4.8315E-04
488.14	6.1831E-04
488.34	6.0879E-04
488.54	5.8955E-04
488.75	5.6837E-04
488.95	5.9637E-04
489.15	5.6528E-04
489.35	5.4126E-04
489.55	5.6244E-04
489.75	6.0823E-04
489.95	5.6776E-04
490.15	5.7346E-04
490.36	6.2689E-04
490.56	5.8169E-04
490.76	6.6050E-04
490.96	6.1302E-04
491.16	6.3980E-04
491.36	6.0402E-04
491.56	5.8492E-04
491.76	4.6011E-04
491.96	5.8998E-04
492.17	5.6542E-04
492.37	6.1167E-04
492.57	6.5409E-04
492.77	6.5393E-04
492.97	7.0222E-04
493.17	6.4289E-04
493.37	6.2406E-04
493.57	5.9341E-04
493.77	5.7721E-04
493.97	6.8585E-04
494.17	5.8789E-04
494.38	6.1744E-04
494.58	5.6319E-04
494.78	5.6131E-04
494.98	5.5599E-04
495.18	6.1393E-04
495.38	6.0524E-04
495.58	6.4011E-04
495.78	6.4907E-04
495.98	6.9382E-04
496.18	6.7507E-04
496.38	6.0558E-04
496.58	5.2300E-04
496.78	6.7560E-04
496.99	5.7634E-04
497.19	6.5771E-04
497.39	6.9748E-04
497.59	6.4096E-04
497.79	5.5964E-04
497.99	6.4771E-04
498.19	6.6958E-04
498.39	6.9321E-04
498.59	6.0942E-04
498.79	5.9292E-04
498.99	6.0204E-04
499.19	6.5851E-04
499.39	6.6784E-04
499.59	6.0208E-04
499.79	6.1386E-04
499.99	6.0800E-04
500.19	6.8440E-04
500.40	6.1861E-04
500.60	6.7112E-04
500.80	6.6331E-04
501.00	6.2504E-04
501.20	6.0119E-04
501.40	7.0011E-04
501.60	6.3220E-04
501.80	6.3150E-04
502.00	6.8410E-04
502.20	6.4004E-04
502.40	6.3759E-04
502.60	5.5669E-04
502.80	7.2936E-04
503.00	6.8245E-04
503.20	6.2813E-04
503.40	5.8945E-04
503.60	6.3335E-04
503.80	7.1081E-04
504.00	6.5414E-04
504.20	7.2168E-04
504.40	7.0131E-04
504.60	7.4842E-04
504.80	7.4247E-04
505.00	7.1822E-04
505.20	7.8351E-04
505.40	7.3339E-04
505.60	6.9939E-04
505.80	7.4018E-04
506.00	7.3866E-04
506.20	7.1852E-04
506.40	7.1715E-04
506.60	7.1945E-04
506.80	6.6712E-04
507.00	7.3122E-04
507.20	7.6086E-04
507.40	8.0740E-04
507.60	7.2818E-04
507.80	7.6208E-04
508.00	7.7954E-04
508.20	8.5813E-04
508.40	7.9820E-04
508.60	7.1785E-04
508.80	6.7374E-04
509.00	8.6799E-04
509.20	7.9818E-04
509.40	7.5424E-04
509.60	8.0154E-04
509.80	7.5977E-04
510.00	8.8044E-04
510.20	8.5298E-04
510.40	8.7887E-04
510.60	8.1068E-04
510.80	7.7988E-04
511.00	7.7198E-04
511.20	9.2514E-04
511.40	8.1829E-04
511.60	8.3500E-04
511.80	8.6120E-04
512.00	8.6120E-04
512.20	9.0577E-04
512.40	8.3803E-04
512.60	8.7312E-04
512.80	8.8389E-04
513.00	9.5570E-04
513.20	9.2573E-04
513.40	8.6848E-04
513.59	8.2847E-04
513.79	9.1934E-04
513.99	8.8418E-04
514.19	9.1176E-04
514.39	8.6878E-04
514.59	9.4510E-04
514.79	8.7470E-04
514.99	8.6507E-04
515.19	9.0793E-04
515.39	9.2541E-04
515.59	9.4288E-04
515.79	8.0780E-04
515.99	9.6969E-04
516.19	9.4454E-04
516.39	9.0505E-04
516.59	9.3267E-04
516.79	1.0037E-03
516.98	8.6043E-04
517.18	9.8573E-04
517.38	9.6057E-04
517.58	9.6367E-04
517.78	9.5549E-04
517.98	9.6363E-04
518.18	9.8668E-04
518.38	1.1240E-03
518.58	1.0016E-03
518.78	9.7693E-04
518.98	9.7574E-04
519.18	1.0251E-03
519.38	1.0909E-03
519.57	1.0582E-03
519.77	9.8287E-04
519.97	1.0780E-03
520.17	1.0465E-03
520.37	1.0437E-03
520.57	1.1032E-03
520.77	1.1290E-03
520.97	1.1097E-03
521.17	1.0759E-03
521.37	1.1490E-03
521.57	1.2021E-03
521.76	1.1031E-03
521.96	1.1889E-03
522.16	1.1469E-03
522.36	1.2646E-03
522.56	1.0917E-03
522.76	1.1698E-03
522.96	1.2660E-03
523.16	1.1993E-03
523.36	1.2719E-03
523.55	1.1792E-03
523.75	1.2043E-03
523.95	1.2091E-03
524.15	1.1404E-03
524.35	1.1958E-03
524.55	1.2076E-03
524.75	1.2620E-03
524.95	1.2820E-03
525.14	1.2316E-03
525.34	1.1988E-03
525.54	1.1225E-03
525.74	1.1928E-03
525.94	1.2168E-03
526.14	1.2917E-03
526.34	1.2697E-03
526.54	1.3412E-03
526.73	1.2070E-03
526.93	1.3295E-03
527.13	1.3408E-03
527.33	1.3478E-03
527.53	1.3966E-03
527.73	1.3028E-03
527.93	1.3726E-03
528.12	1.2389E-03
528.32	1.2944E-03
528.52	1.4047E-03
528.72	1.4388E-03
528.92	1.3568E-03
529.12	1.3543E-03
529.32	1.3817E-03
529.51	1.4293E-03
529.71	1.4331E-03
529.91	1.4194E-03
530.11	1.4795E-03
530.31	1.5690E-03
530.51	1.4416E-03
530.70	1.4280E-03
530.90	1.5040E-03
531.10	1.4485E-03
531.30	1.5049E-03
531.50	1.4872E-03
531.70	1.5178E-03
531.89	1.4295E-03
532.09	1.4624E-03
532.29	1.4441E-03
532.49	1.5649E-03
532.69	1.5159E-03
532.88	1.4935E-03
533.08	1.4185E-03
533.28	1.4854E-03
533.48	1.5962E-03
533.68	1.5262E-03
533.88	1.6652E-03
534.07	1.6326E-03
534.27	1.6182E-03
534.47	1.6790E-03
534.67	1.5084E-03
534.87	1.6496E-03
535.06	1.6399E-03
535.26	1.5774E-03
535.46	1.5390E-03
535.66	1.7614E-03
535.86	1.6010E-03
536.05	1.5901E-03
536.25	1.6286E-03
536.45	1.6524E-03
536.65	1.6340E-03
536.85	1.5930E-03
537.04	1.6665E-03
537.24	1.7763E-03
537.44	1.5451E-03
537.64	1.4974E-03
537.83	1.6805E-03
538.03	1.7007E-03
538.23	1.7849E-03
538.43	1.7472E-03
538.63	1.6210E-03
538.82	1.6814E-03
539.02	1.6895E-03
539.22	1.7547E-03
539.42	1.6519E-03
539.61	1.7412E-03
539.81	1.7571E-03
540.01	1.6413E-03
540.21	1.7123E-03
540.41	1.6740E-03
540.60	1.7148E-03
540.80	1.7081E-03
541.00	1.6974E-03
541.20	1.7908E-03
541.39	1.7662E-03
541.59	1.7416E-03
541.79	1.7538E-03
541.99	1.8579E-03
542.18	1.7862E-03
542.38	1.7588E-03
542.58	1.7498E-03
542.78	1.8034E-03
542.97	1.6752E-03
543.17	1.7987E-03
543.37	1.7233E-03
543.57	1.8679E-03
543.76	1.9677E-03
543.96	1.9090E-03
544.16	1.8051E-03
544.36	1.8736E-03
544.55	2.0203E-03
544.75	1.9214E-03
544.95	1.9958E-03
545.14	1.7704E-03
545.34	1.9958E-03
545.54	1.8676E-03
545.74	1.9084E-03
545.93	1.9973E-03
546.13	1.9507E-03
546.33	1.8558E-03
546.53	1.8343E-03
546.72	2.0102E-03
546.92	2.0066E-03
547.12	1.9145E-03
547.31	1.9929E-03
547.51	1.9236E-03
547.71	2.0472E-03
547.91	2.0284E-03
548.10	1.8362E-03
548.30	1.9082E-03
548.50	2.0662E-03
548.69	2.0122E-03
548.89	1.9810E-03
549.09	1.9968E-03
549.29	1.9412E-03
549.48	2.1884E-03
549.68	1.9101E-03
549.88	2.0675E-03
550.07	2.1179E-03
550.27	2.0829E-03
550.47	1.5645E-03
550.66	2.2297E-03
550.86	1.9434E-03
551.06	2.2144E-03
551.25	2.0234E-03
551.45	2.1917E-03
551.65	2.2021E-03
551.85	2.2843E-03
552.04	1.9762E-03
552.24	2.1554E-03
552.44	2.0587E-03
552.63	2.0448E-03
552.83	2.1603E-03
553.03	2.0049E-03
553.22	2.2613E-03
553.42	2.0893E-03
553.62	2.3139E-03
553.81	2.1163E-03
554.01	2.2494E-03
554.21	2.0939E-03
554.40	2.2178E-03
554.60	2.1595E-03
554.80	2.2468E-03
554.99	2.2379E-03
555.19	2.2284E-03
555.39	2.2749E-03
555.58	2.1647E-03
555.78	2.2096E-03
555.98	2.1730E-03
556.17	2.1788E-03
556.37	2.2367E-03
556.56	2.2489E-03
556.76	2.2529E-03
556.96	2.1485E-03
557.15	2.2146E-03
557.35	2.1657E-03
557.55	2.1668E-03
557.74	2.1494E-03
557.94	2.2436E-03
558.14	2.2938E-03
558.33	2.1346E-03
558.53	2.1125E-03
558.73	2.2181E-03
558.92	2.0854E-03
559.12	2.3090E-03
559.31	2.3235E-03
559.51	2.4010E-03
559.71	2.2523E-03
559.90	2.3457E-03
560.10	2.3311E-03
560.30	2.3072E-03
560.49	2.2163E-03
560.69	2.3297E-03
560.88	2.4122E-03
561.08	2.1704E-03
561.28	2.2106E-03
561.47	2.3312E-03
561.67	2.3400E-03
561.86	2.2278E-03
562.06	2.2981E-03
562.26	2.3779E-03
562.45	2.2770E-03
562.65	2.3444E-03
562.84	2.1547E-03
563.04	2.2459E-03
563.24	2.2260E-03
563.43	2.3911E-03
563.63	2.3873E-03
563.82	2.2994E-03
564.02	2.3978E-03
564.22	2.4423E-03
564.41	2.2507E-03
564.61	2.3680E-03
564.80	2.3831E-03
565.00	2.2893E-03
565.20	2.4627E-03
565.39	2.2442E-03
565.59	2.1695E-03
565.78	2.3199E-03
565.98	2.1797E-03
566.18	2.4297E-03
566.37	2.3387E-03
566.57	2.2775E-03
566.76	2.2258E-03
566.96	2.4217E-03
567.15	2.2652E-03
567.35	2.4971E-03
567.55	2.3444E-03
567.74	2.3740E-03
567.94	2.2672E-03
568.13	2.3704E-03
568.33	2.4812E-03
568.52	2.4623E-03
568.72	2.3520E-03
568.91	2.3067E-03
569.11	2.3341E-03
569.31	2.4954E-03
569.50	2.2903E-03
569.70	2.4072E-03
569.89	2.3474E-03
570.09	2.2978E-03
570.28	2.2399E-03
570.48	2.3104E-03
570.67	2.4475E-03
570.87	2.2251E-03
571.07	2.2136E-03
571.26	2.3573E-03
571.46	2.3105E-03
571.65	2.3778E-03
571.85	2.4239E-03
572.04	2.3366E-03
572.24	2.5023E-03
572.43	2.3257E-03
572.63	2.4654E-03
572.82	2.3434E-03
573.02	2.4717E-03
573.21	2.3413E-03
573.41	2.4277E-03
573.60	2.5433E-03
573.80	2.4823E-03
573.99	2.4150E-03
574.19	2.5812E-03
574.38	2.4660E-03
574.58	2.5264E-03
574.78	2.3707E-03
574.97	2.5430E-03
575.17	2.4958E-03
575.36	2.4249E-03
575.56	2.3535E-03
575.75	2.5783E-03
575.95	2.4389E-03
576.14	2.3749E-03
576.34	2.5660E-03
576.53	2.4139E-03
576.73	2.4609E-03
576.92	2.3187E-03
577.12	2.5896E-03
577.31	2.2453E-03
577.51	2.5967E-03
577.70	2.4667E-03
577.90	2.4640E-03
578.09	2.5394E-03
578.29	2.4065E-03
578.48	2.5945E-03
578.68	2.4601E-03
578.87	2.6896E-03
579.06	2.4343E-03
579.26	2.5455E-03
579.45	2.4339E-03
579.65	2.6906E-03
579.84	2.5083E-03
580.04	2.6093E-03
580.23	2.6692E-03
580.43	2.3843E-03
580.62	2.5597E-03
580.82	2.5608E-03
581.01	2.5074E-03
581.21	2.4944E-03
581.40	2.4471E-03
581.60	2.6190E-03
581.79	2.6640E-03
581.99	2.4959E-03
582.18	2.5060E-03
582.37	2.5979E-03
582.57	2.5860E-03
582.76	2.6812E-03
582.96	2.7112E-03
583.15	2.6695E-03
583.35	2.6653E-03
583.54	2.6973E-03
583.74	2.6677E-03
583.93	2.5593E-03
584.12	2.4833E-03
584.32	2.7495E-03
584.51	2.6549E-03
584.71	2.4743E-03
584.90	2.5207E-03
585.10	2.5564E-03
585.29	2.5886E-03
585.49	2.6207E-03
585.68	2.7019E-03
585.87	2.6280E-03
586.07	2.6048E-03
586.26	2.5761E-03
586.46	2.5897E-03
586.65	2.5443E-03
586.85	2.6217E-03
587.04	2.3682E-03
587.23	2.6391E-03
587.43	2.5650E-03
587.62	2.2865E-03
587.82	2.5334E-03
588.01	2.3828E-03
588.20	2.4377E-03
588.40	2.2979E-03
588.59	2.4205E-03
588.79	2.4734E-03
588.98	2.5593E-03
589.18	2.4339E-03
589.37	2.5502E-03
589.56	2.3654E-03
589.76	2.2972E-03
589.95	2.5713E-03
590.15	2.4488E-03
590.34	2.3267E-03
590.53	2.5661E-03
590.73	2.4177E-03
590.92	2.4263E-03
591.11	2.5457E-03
591.31	2.5322E-03
591.50	2.6269E-03
591.70	2.5375E-03
591.89	2.7210E-03
592.08	2.4942E-03
592.28	2.4351E-03
592.47	2.6889E-03
592.67	2.6514E-03
592.86	2.6432E-03
593.05	2.4519E-03
593.25	2.6656E-03
593.44	2.5715E-03
593.63	2.7418E-03
593.83	2.5502E-03
594.02	2.7916E-03
594.22	2.7713E-03
594.41	2.8671E-03
594.60	2.6959E-03
594.80	2.7212E-03
594.99	2.7218E-03
595.18	2.7240E-03
595.38	2.6745E-03
595.57	2.7314E-03
595.76	2.7800E-03
595.96	2.7366E-03
596.15	2.5712E-03
596.34	2.9663E-03
596.54	2.9110E-03
596.73	2.8004E-03
596.93	2.8763E-03
597.12	2.7620E-03
597.31	2.8832E-03
597.51	2.7598E-03
597.70	2.8010E-03
597.89	2.7379E-03
598.09	2.6870E-03
598.28	3.0210E-03
598.47	2.7358E-03
598.67	2.7882E-03
598.86	2.6718E-03
599.05	2.9420E-03
599.25	2.8242E-03
599.44	2.9032E-03
599.63	2.9976E-03
599.83	2.7933E-03
600.02	2.8060E-03
600.21	2.8263E-03
600.41	2.8807E-03
600.60	2.6916E-03
600.79	2.8484E-03
600.98	2.8576E-03
601.18	3.0569E-03
601.37	2.7768E-03
601.56	2.8339E-03
601.76	3.1742E-03
601.95	2.8546E-03
602.14	2.9198E-03
602.34	2.9159E-03
602.53	3.0826E-03
602.72	2.8766E-03
602.92	3.0226E-03
603.11	2.9285E-03
603.30	3.0485E-03
603.49	2.9249E-03
603.69	3.1836E-03
603.88	3.0445E-03
604.07	3.1655E-03
604.27	3.0376E-03
604.46	2.8985E-03
604.65	3.0617E-03
604.84	3.0308E-03
605.04	3.1329E-03
605.23	3.0528E-03
605.42	3.0614E-03
605.62	3.1319E-03
605.81	2.9806E-03
606.00	3.0190E-03
606.19	3.1368E-03
606.39	3.1339E-03
606.58	2.9831E-03
606.77	3.0129E-03
606.97	2.8912E-03
607.16	3.0798E-03
607.35	3.1374E-03
607.54	3.0196E-03
607.74	3.1905E-03
607.93	3.2171E-03
608.12	3.0050E-03
608.31	3.0885E-03
608.51	3.1148E-03
608.70	3.0027E-03
608.89	2.9776E-03
609.08	2.8788E-03
609.28	3.0503E-03
609.47	3.0706E-03
609.66	3.1137E-03
609.85	3.1596E-03
610.05	3.1934E-03
610.24	3.0082E-03
610.43	3.0999E-03
610.62	3.0413E-03
610.82	2.9912E-03
611.01	3.1114E-03
611.20	3.0292E-03
611.39	3.0472E-03
611.59	3.0143E-03
611.78	3.1013E-03
611.97	3.0538E-03
612.16	3.2176E-03
612.35	2.9871E-03
612.55	3.0145E-03
612.74	3.1421E-03
612.93	3.0910E-03
613.12	2.8848E-03
613.32	3.0123E-03
613.51	3.0590E-03
613.70	3.0303E-03
613.89	3.0291E-03
614.08	3.0710E-03
614.28	3.0261E-03
614.47	2.9249E-03
614.66	2.9719E-03
614.85	3.0871E-03
615.04	3.0639E-03
615.24	3.2391E-03
615.43	3.0541E-03
615.62	2.9838E-03
615.81	3.0138E-03
616.00	2.7814E-03
616.20	2.9923E-03
616.39	3.0061E-03
616.58	3.0176E-03
616.77	3.0086E-03
616.96	3.2646E-03
617.16	3.2368E-03
617.35	3.1622E-03
617.54	3.0255E-03
617.73	2.9564E-03
617.92	2.9863E-03
618.12	3.1925E-03
618.31	3.1295E-03
618.50	3.1879E-03
618.69	3.0820E-03
618.88	3.3578E-03
619.07	3.1982E-03
619.27	3.2580E-03
619.46	3.2916E-03
619.65	3.4478E-03
619.84	3.1890E-03
620.03	3.1632E-03
620.22	3.3950E-03
620.42	3.0000E-03
620.61	3.4189E-03
620.80	3.3512E-03
620.99	3.3167E-03
621.18	3.5181E-03
621.37	3.2574E-03
621.57	3.0519E-03
621.76	3.3828E-03
621.95	3.3427E-03
622.14	3.1680E-03
622.33	3.0662E-03
622.52	3.2030E-03
622.71	3.3732E-03
622.91	3.4393E-03
623.10	3.3740E-03
623.29	3.3209E-03
623.48	3.2368E-03
623.67	3.3990E-03
623.86	3.4108E-03
624.05	3.3849E-03
624.25	3.2296E-03
624.44	3.4377E-03
624.63	3.5826E-03
624.82	3.4551E-03
625.01	3.3513E-03
625.20	3.5328E-03
625.39	3.2335E-03
625.58	3.4738E-03
625.78	3.5325E-03
625.97	3.1666E-03
626.16	3.3196E-03
626.35	3.2883E-03
626.54	3.4980E-03
626.73	3.4755E-03
626.92	3.3626E-03
627.11	3.3528E-03
627.31	3.3536E-03
627.50	3.3116E-03
627.69	3.4423E-03
627.88	3.4994E-03
628.07	3.0207E-03
628.26	3.2973E-03
628.45	3.2148E-03
628.64	3.2916E-03
628.83	3.2630E-03
629.02	2.9505E-03
629.22	3.5479E-03
629.41	3.2289E-03
629.60	3.0046E-03
629.79	3.4532E-03
629.98	3.2294E-03
630.17	3.3752E-03
630.36	3.3186E-03
630.55	3.3341E-03
630.74	3.4138E-03
630.93	3.5573E-03
631.12	3.2162E-03
631.31	3.2265E-03
631.51	3.4875E-03
631.70	3.4502E-03
631.89	3.2620E-03
632.08	3.3345E-03
632.27	3.4278E-03
632.46	3.3621E-03
632.65	3.3834E-03
632.84	3.1747E-03
633.03	3.5963E-03
633.22	3.3867E-03
633.41	3.5788E-03
633.60	3.5698E-03
633.79	3.4014E-03
633.98	3.1605E-03
634.17	3.4325E-03
634.37	3.4359E-03
634.56	3.5965E-03
634.75	3.2591E-03
634.94	3.5358E-03
635.13	3.3967E-03
635.32	3.5940E-03
635.51	3.5392E-03
635.70	3.2908E-03
635.89	3.7461E-03
636.08	3.4031E-03
636.27	3.2444E-03
636.46	3.5447E-03
636.65	3.3812E-03
636.84	3.2366E-03
637.03	3.5337E-03
637.22	3.5147E-03
637.41	3.4165E-03
637.60	3.5374E-03
637.79	3.5676E-03
637.98	3.4947E-03
638.17	3.5160E-03
638.36	3.3482E-03
638.55	3.1803E-03
638.74	3.2237E-03
638.93	3.3185E-03
639.12	3.2666E-03
639.31	3.2972E-03
639.50	3.2447E-03
639.69	3.1921E-03
639.88	3.4445E-03
640.07	3.2470E-03
640.26	3.4950E-03
640.45	3.3734E-03
640.64	3.4317E-03
640.83	3.4088E-03
641.02	3.5846E-03
641.21	3.3629E-03
641.40	3.0547E-03
641.59	3.3986E-03
641.78	3.4696E-03
641.97	3.4240E-03
642.16	3.5048E-03
642.35	3.4482E-03
642.54	3.4758E-03
642.73	3.3563E-03
642.92	2.9162E-03
643.11	3.4550E-03
643.30	3.5142E-03
643.49	3.2481E-03
643.68	3.3428E-03
643.87	3.1013E-03
644.06	3.3182E-03
644.25	3.1376E-03
644.44	3.2035E-03
644.63	3.1778E-03
644.82	3.1884E-03
645.01	3.3123E-03
645.20	3.2788E-03
645.39	3.1551E-03
645.58	3.0803E-03
645.77	3.0840E-03
645.96	3.2953E-03
646.15	3.1267E-03
646.34	3.1777E-03
646.53	3.1115E-03
646.72	3.1860E-03
646.91	2.9650E-03
647.10	3.4022E-03
647.29	3.0910E-03
647.47	3.2582E-03
647.66	3.0602E-03
647.85	2.9663E-03
648.04	2.9865E-03
648.23	2.9954E-03
648.42	3.4289E-03
648.61	2.8125E-03
648.80	3.0464E-03
648.99	3.1657E-03
649.18	2.8387E-03
649.37	3.1077E-03
649.56	2.9923E-03
649.75	2.9301E-03
649.94	3.1841E-03
650.13	3.0964E-03
650.31	3.1334E-03
650.50	2.9942E-03
650.69	3.1285E-03
650.88	2.9973E-03
651.07	3.0401E-03
651.26	3.1455E-03
651.45	3.3904E-03
651.64	3.1991E-03
651.83	2.9785E-03
652.02	3.1673E-03
652.21	3.0348E-03
652.40	3.0597E-03
652.58	3.4846E-03
652.77	3.0406E-03
652.96	2.9966E-03
653.15	3.2799E-03
653.34	3.2452E-03
653.53	3.2646E-03
653.72	3.2166E-03
653.91	2.9588E-03
654.10	3.0689E-03
654.29	2.8732E-03
654.47	3.2662E-03
654.66	2.7242E-03
654.85	2.8400E-03
655.04	2.6893E-03
655.23	2.9187E-03
655.42	2.6047E-03
655.61	2.8518E-03
655.80	2.7908E-03
655.98	2.9576E-03
656.17	2.9042E-03
656.36	2.9961E-03
656.55	2.8129E-03
656.74	3.1343E-03
656.93	3.0550E-03
657.12	3.0798E-03
657.31	2.8265E-03
657.49	3.2879E-03
657.68	3.1383E-03
657.87	2.7450E-03
658.06	3.3055E-03
658.25	2.9941E-03
658.44	3.2221E-03
658.63	3.0465E-03
658.81	2.9476E-03
659.00	3.1356E-03
659.19	3.0120E-03
659.38	3.4023E-03
659.57	3.3921E-03
659.76	3.1059E-03
659.95	3.4544E-03
660.13	2.9457E-03
660.32	3.2692E-03
660.51	3.1570E-03
660.70	3.3750E-03
660.89	3.1573E-03
661.08	3.2435E-03
661.26	3.0791E-03
661.45	3.3043E-03
661.64	3.1396E-03
661.83	3.1135E-03
662.02	3.1914E-03
662.21	3.3708E-03
662.39	3.4819E-03
662.58	3.2580E-03
662.77	3.6221E-03
662.96	3.4249E-03
663.15	3.1695E-03
663.33	3.5596E-03
663.52	3.3075E-03
663.71	3.3088E-03
663.90	3.3121E-03
664.09	3.0509E-03
664.28	3.2477E-03
664.46	3.0826E-03
664.65	3.1334E-03
664.84	2.9862E-03
665.03	3.2272E-03
665.22	3.3230E-03
665.40	3.2919E-03
665.59	3.1304E-03
665.78	3.1126E-03
665.97	3.1133E-03
666.16	3.2806E-03
666.34	3.4369E-03
666.53	3.1062E-03
666.72	3.4459E-03
666.91	3.2624E-03
667.09	3.2869E-03
667.28	3.4243E-03
667.47	3.3486E-03
667.66	3.2293E-03
667.85	3.2222E-03
668.03	2.5188E-03
668.22	3.4226E-03
668.41	3.2691E-03
668.60	2.8115E-03
668.78	3.4043E-03
668.97	3.1970E-03
669.16	3.0136E-03
669.35	3.3799E-03
669.54	2.9898E-03
669.72	3.3943E-03
669.91	3.1914E-03
670.10	3.3040E-03
670.29	3.2654E-03
670.47	3.4237E-03
670.66	3.5029E-03
670.85	3.2765E-03
671.04	3.0283E-03
671.22	3.0336E-03
671.41	3.2996E-03
671.60	3.3436E-03
671.79	3.3691E-03
671.97	3.1948E-03
672.16	3.5925E-03
672.35	3.4611E-03
672.54	3.4601E-03
672.72	3.2593E-03
672.91	3.0924E-03
673.10	3.2650E-03
673.28	3.1690E-03
673.47	3.2239E-03
673.66	3.2579E-03
673.85	3.6088E-03
674.03	3.3926E-03
674.22	3.3635E-03
674.41	3.1735E-03
674.60	3.2184E-03
674.78	2.9190E-03
674.97	3.0683E-03
675.16	3.7146E-03
675.34	3.4347E-03
675.53	3.2161E-03
675.72	3.0562E-03
675.91	3.6270E-03
676.09	3.3289E-03
676.28	3.5021E-03
676.47	3.3805E-03
676.65	3.0282E-03
676.84	3.2834E-03
677.03	3.4510E-03
677.22	3.1560E-03
677.40	3.4120E-03
677.59	3.2779E-03
677.78	3.1592E-03
677.96	3.2583E-03
678.15	3.4314E-03
678.34	3.6633E-03
678.52	3.1341E-03
678.71	3.2280E-03
678.90	3.2816E-03
679.08	3.3826E-03
679.27	3.1078E-03
679.46	3.5951E-03
679.64	3.3620E-03
679.83	3.2266E-03
680.02	3.2648E-03
680.21	2.8337E-03
680.39	3.5087E-03
680.58	3.3082E-03
680.77	3.2346E-03
680.95	3.2832E-03
681.14	2.9217E-03
681.33	3.2541E-03
681.51	3.4575E-03
681.70	3.3656E-03
681.89	3.4944E-03
682.07	3.3066E-03
682.26	2.9155E-03
682.44	3.4245E-03
682.63	3.3659E-03
682.82	3.5091E-03
683.00	2.8560E-03
683.19	3.3020E-03
683.38	3.4349E-03
683.56	3.5433E-03
683.75	3.4302E-03
683.94	3.1217E-03
684.12	3.0800E-03
684.31	3.4541E-03
684.50	3.5305E-03
684.68	3.2094E-03
684.87	3.2002E-03
685.05	3.3081E-03
685.24	2.9343E-03
685.43	3.1708E-03
685.61	3.1499E-03
685.80	2.8728E-03
685.99	3.1465E-03
686.17	2.7939E-03
686.36	3.2393E-03
686.54	3.2336E-03
686.73	3.1028E-03
686.92	3.1253E-03
687.10	2.9737E-03
687.29	3.2608E-03
687.48	2.9337E-03
687.66	3.4191E-03
687.85	3.0041E-03
688.03	3.1679E-03
688.22	2.8461E-03
688.41	3.2529E-03
688.59	2.8168E-03
688.78	3.2849E-03
688.96	3.3735E-03
689.15	3.5987E-03
689.34	2.8369E-03
689.52	3.7147E-03
689.71	3.3956E-03
689.89	3.5834E-03
690.08	3.8742E-03
690.27	3.5844E-03
690.45	3.4856E-03
690.64	3.4250E-03
690.82	3.2395E-03
691.01	3.5623E-03
691.19	3.4215E-03
691.38	3.5702E-03
691.57	3.7427E-03
691.75	3.3834E-03
691.94	3.7878E-03
692.12	3.5198E-03
692.31	3.8217E-03
692.50	3.5974E-03
692.68	3.7797E-03
692.87	3.9715E-03
693.05	3.7992E-03
693.24	3.4306E-03
693.42	3.6155E-03
693.61	3.8131E-03
693.79	4.0155E-03
693.98	3.6531E-03
694.17	3.8726E-03
694.35	4.1272E-03
694.54	4.1466E-03
694.72	3.9584E-03
694.91	4.0123E-03
695.09	4.0266E-03
695.28	4.0757E-03
695.46	4.1646E-03
695.65	4.2192E-03
695.83	4.2579E-03
696.02	4.4711E-03
696.21	4.5353E-03
696.39	4.2648E-03
696.58	4.4875E-03
696.76	3.8531E-03
696.95	4.2251E-03
697.13	4.3224E-03
697.32	4.4772E-03
697.50	4.4475E-03
697.69	4.5541E-03
697.87	4.7228E-03
698.06	4.7550E-03
698.24	4.4533E-03
698.43	4.5840E-03
698.61	5.0570E-03
698.80	4.7517E-03
698.98	5.0321E-03
699.17	4.3020E-03
699.35	4.8581E-03
699.54	4.7123E-03
699.72	4.3763E-03
699.91	5.0441E-03
700.09	5.0466E-03
700.28	5.0969E-03
700.46	5.1193E-03
700.65	4.9963E-03
700.83	5.1964E-03
701.02	5.3326E-03
701.20	4.6328E-03
701.39	5.4948E-03
701.57	5.2005E-03
701.76	4.8817E-03
701.94	5.1438E-03
702.13	5.2764E-03
702.31	4.6926E-03
702.50	5.9610E-03
702.68	5.7059E-03
702.87	5.8746E-03
703.05	5.9210E-03
703.24	5.7356E-03
703.42	4.9794E-03
703.61	5.9618E-03
703.79	6.1168E-03
703.98	5.5149E-03
704.16	5.8035E-03
704.35	5.6881E-03
704.53	5.9508E-03
704.72	5.9790E-03
704.90	6.1093E-03
705.08	5.7340E-03
705.27	6.4109E-03
705.45	6.3564E-03
705.64	6.5389E-03
705.82	6.4266E-03
706.01	6.4347E-03
706.19	6.2267E-03
706.38	6.3846E-03
706.56	6.8472E-03
706.75	6.7491E-03
706.93	6.6215E-03
707.11	6.2288E-03
707.30	6.8328E-03
707.48	6.7640E-03
707.67	6.4556E-03
707.85	6.6764E-03
708.04	6.8933E-03
708.22	6.8336E-03
708.40	6.5716E-03
708.59	6.4246E-03
708.77	7.0584E-03
708.96	6.8397E-03
709.14	7.0112E-03
709.33	6.8555E-03
709.51	7.1210E-03
709.69	7.1121E-03
709.88	7.2587E-03
710.06	7.1951E-03
710.25	6.9266E-03
710.43	7.2245E-03
710.62	7.5045E-03
710.80	7.2526E-03
710.98	7.4241E-03
711.17	7.2954E-03
711.35	7.4750E-03
711.54	7.6365E-03
711.72	7.2795E-03
711.90	7.6601E-03
712.09	7.6657E-03
712.27	7.2222E-03
712.46	7.5945E-03
712.64	7.2833E-03
712.82	7.8652E-03
713.01	7.9102E-03
713.19	7.8826E-03
713.37	7.6250E-03
713.56	7.5618E-03
713.74	7.9329E-03
713.93	7.6622E-03
714.11	7.4872E-03
714.29	7.1204E-03
714.48	7.7453E-03
714.66	7.7617E-03
714.85	7.4373E-03
715.03	7.5258E-03
715.21	7.4120E-03
715.40	7.0855E-03
715.58	7.1579E-03
715.76	6.8729E-03
715.95	7.0401E-03
716.13	7.4692E-03
716.31	7.2258E-03
716.50	7.0680E-03
716.68	6.8137E-03
716.87	7.1100E-03
717.05	7.0658E-03
717.23	6.6584E-03
717.42	6.9499E-03
717.60	6.7219E-03
717.78	6.8823E-03
717.97	6.8483E-03
718.15	6.7361E-03
718.33	6.5459E-03
718.52	6.8239E-03
718.70	7.0005E-03
718.88	6.6471E-03
719.07	7.4472E-03
719.25	6.9608E-03
719.43	7.2142E-03
719.62	7.1116E-03
719.80	7.1664E-03
719.98	7.6513E-03
720.17	7.4425E-03
720.35	7.4846E-03
720.53	7.8813E-03
720.72	8.0581E-03
720.90	7.8360E-03
721.08	7.6823E-03
721.27	7.8914E-03
721.45	7.9300E-03
721.63	7.8833E-03
721.82	8.1628E-03
722.00	7.8885E-03
722.18	7.9342E-03
722.36	8.3426E-03
722.55	8.1999E-03
722.73	8.2230E-03
722.91	8.1926E-03
723.10	8.4671E-03
723.28	8.1983E-03
723.46	7.5457E-03
723.65	8.0403E-03
723.83	8.0624E-03
724.01	7.9600E-03
724.19	8.2656E-03
724.38	8.2883E-03
724.56	8.4561E-03
724.74	8.6354E-03
724.93	7.9530E-03
725.11	8.0702E-03
725.29	8.5377E-03
725.47	8.5075E-03
725.66	8.5372E-03
725.84	8.4202E-03
726.02	8.5557E-03
726.21	8.9601E-03
726.39	8.6056E-03
726.57	8.7574E-03
726.75	8.6531E-03
726.94	9.1309E-03
727.12	8.7728E-03
727.30	8.7426E-03
727.48	8.5877E-03
727.67	9.0891E-03
727.85	8.8132E-03
728.03	9.0475E-03
728.21	9.3918E-03
728.40	8.9255E-03
728.58	9.4891E-03
728.76	9.2165E-03
728.94	9.4786E-03
729.13	9.7291E-03
729.31	9.2969E-03
729.49	9.7058E-03
729.67	9.7545E-03
729.86	9.9249E-03
730.04	9.5350E-03
730.22	1.0177E-02
730.40	1.0172E-02
730.59	1.0237E-02
730.77	1.0365E-02
730.95	1.0796E-02
731.13	1.0677E-02
731.31	1.0839E-02
731.50	1.0451E-02
731.68	1.1345E-02
731.86	1.1090E-02
732.04	1.1366E-02
732.23	1.1793E-02
732.41	1.1575E-02
732.59	1.1788E-02
732.77	1.1889E-02
732.95	1.1985E-02
733.14	1.1789E-02
733.32	1.2325E-02
733.50	1.2126E-02
733.68	1.2122E-02
733.86	1.2156E-02
734.05	1.2442E-02
734.23	1.2539E-02
734.41	1.1962E-02
734.59	1.2374E-02
734.77	1.2523E-02
734.96	1.1953E-02
735.14	1.2765E-02
735.32	1.2646E-02
735.50	1.2645E-02
735.68	1.3110E-02
735.87	1.2778E-02
736.05	1.3345E-02
736.23	1.2405E-02
736.41	1.3203E-02
736.59	1.3066E-02
736.77	1.2915E-02
736.96	1.2901E-02
737.14	1.2591E-02
737.32	1.3271E-02
737.50	1.3479E-02
737.68	1.3324E-02
737.87	1.3521E-02
738.05	1.3898E-02
738.23	1.3060E-02
738.41	1.3440E-02
738.59	1.3599E-02
738.77	1.3800E-02
738.95	1.4190E-02
739.14	1.3570E-02
739.32	1.3688E-02
739.50	1.4408E-02
739.68	1.3773E-02
739.86	1.4061E-02
740.04	1.4014E-02
740.23	1.3650E-02
740.41	1.4309E-02
740.59	1.4443E-02
740.77	1.4690E-02
740.95	1.4447E-02
741.13	1.4354E-02
741.31	1.4222E-02
741.50	1.4394E-02
741.68	1.4262E-02
741.86	1.4182E-02
742.04	1.4750E-02
742.22	1.4929E-02
742.40	1.4774E-02
742.58	1.4972E-02
742.76	1.5079E-02
742.95	1.4341E-02
743.13	1.5226E-02
743.31	1.5039E-02
743.49	1.4904E-02
743.67	1.5346E-02
743.85	1.5241E-02
744.03	1.4979E-02
744.21	1.5308E-02
744.39	1.4915E-02
744.58	1.5550E-02
744.76	1.5488E-02
744.94	1.5826E-02
745.12	1.5537E-02
745.30	1.5214E-02
745.48	1.5690E-02
745.66	1.5848E-02
745.84	1.5216E-02
746.02	1.5244E-02
746.20	1.5539E-02
746.38	1.5733E-02
746.57	1.6157E-02
746.75	1.5107E-02
746.93	1.5856E-02
747.11	1.5318E-02
747.29	1.5703E-02
747.47	1.6101E-02
747.65	1.5952E-02
747.83	1.5280E-02
748.01	1.5791E-02
748.19	1.5856E-02
748.37	1.5773E-02
748.55	1.5809E-02
748.73	1.5542E-02
748.92	1.5875E-02
749.10	1.5558E-02
749.28	1.6050E-02
749.46	1.5679E-02
749.64	1.5476E-02
749.82	1.5703E-02
750.00	1.6081E-02
750.18	1.5958E-02
750.36	1.5444E-02
750.54	1.6013E-02
750.72	1.6313E-02
750.90	1.6262E-02
751.08	1.5954E-02
751.26	1.6320E-02
751.44	1.6344E-02
751.62	1.6635E-02
751.80	1.6229E-02
751.98	1.6488E-02
752.16	1.6626E-02
752.34	1.6680E-02
752.52	1.6881E-02
752.71	1.6126E-02
752.89	1.6034E-02
753.07	1.6908E-02
753.25	1.6085E-02
753.43	1.7010E-02
753.61	1.6423E-02
753.79	1.7130E-02
753.97	1.6929E-02
754.15	1.7080E-02
754.33	1.7259E-02
754.51	1.7278E-02
754.69	1.7384E-02
754.87	1.7081E-02
755.05	1.7133E-02
755.23	1.7542E-02
755.41	1.7831E-02
755.59	1.5784E-02
755.77	1.7064E-02
755.95	1.6985E-02
756.13	1.6327E-02
756.31	1.7059E-02
756.49	1.7045E-02
756.67	1.6575E-02
756.85	1.6381E-02
757.03	1.6054E-02
757.21	1.5949E-02
757.39	1.5877E-02
757.57	1.5804E-02
757.75	1.4877E-02
757.93	1.4006E-02
758.11	1.4057E-02
758.29	1.3747E-02
758.47	1.3136E-02
758.65	1.3088E-02
758.83	1.3466E-02
759.01	1.2765E-02
759.18	1.2136E-02
759.36	1.0993E-02
759.54	1.1461E-02
759.72	1.0681E-02
759.90	1.0918E-02
760.08	1.0769E-02
760.26	1.0740E-02
760.44	1.0043E-02
760.62	9.4874E-03
760.80	9.4847E-03
760.98	1.0404E-02
761.16	1.0366E-02
761.34	9.9122E-03
761.52	1.0582E-02
761.70	9.8095E-03
761.88	9.9849E-03
762.06	1.0089E-02
762.24	1.0015E-02
762.42	1.0171E-02
762.60	1.0297E-02
762.78	1.0580E-02
762.95	1.0513E-02
763.13	1.1037E-02
763.31	1.1326E-02
763.49	1.1167E-02
763.67	1.1498E-02
763.85	1.1081E-02
764.03	1.2202E-02
764.21	1.1850E-02
764.39	1.2489E-02
764.57	1.3209E-02
764.75	1.3136E-02
764.93	1.4225E-02
765.11	1.3608E-02
765.28	1.4507E-02
765.46	1.4601E-02
765.64	1.4586E-02
765.82	1.5162E-02
766.00	1.5604E-02
766.18	1.5859E-02
766.36	1.5979E-02
766.54	1.6074E-02
766.72	1.6401E-02
766.90	1.7413E-02
767.07	1.6455E-02
767.25	1.7187E-02
767.43	1.7464E-02
767.61	1.8025E-02
767.79	1.8111E-02
767.97	1.8008E-02
768.15	1.7834E-02
768.33	1.7627E-02
768.51	1.8294E-02
768.68	1.8376E-02
768.86	1.8065E-02
769.04	1.8265E-02
769.22	1.9258E-02
769.40	1.9127E-02
769.58	1.8677E-02
769.76	1.9678E-02
769.94	1.9506E-02
770.11	1.8897E-02
770.29	1.9260E-02
770.47	1.9226E-02
770.65	1.9392E-02
770.83	1.9339E-02
771.01	1.9720E-02
771.19	1.9711E-02
771.36	1.9177E-02
771.54	1.9825E-02
771.72	1.9475E-02
771.90	1.9030E-02
772.08	1.9663E-02
772.26	2.0109E-02
772.44	1.9107E-02
772.61	1.9743E-02
772.79	1.9089E-02
772.97	1.9854E-02
773.15	2.0329E-02
773.33	1.9294E-02
773.51	1.9952E-02
773.68	1.9404E-02
773.86	1.9152E-02
774.04	1.9546E-02
774.22	1.9092E-02
774.40	1.9331E-02
774.58	1.9677E-02
774.75	1.9516E-02
774.93	1.8765E-02
775.11	1.9769E-02
775.29	1.9141E-02
775.47	1.8652E-02
775.64	1.9509E-02
775.82	1.9117E-02
776.00	1.9313E-02
776.18	1.8762E-02
776.36	1.8766E-02
776.53	1.9740E-02
776.71	1.8813E-02
776.89	1.8665E-02
777.07	1.9160E-02
777.25	1.9021E-02
777.42	1.8998E-02
777.60	1.8623E-02
777.78	1.9168E-02
777.96	1.8808E-02
778.14	1.9353E-02
778.31	1.8891E-02
778.49	1.8060E-02
778.67	1.8233E-02
778.85	1.8509E-02
779.03	1.8877E-02
779.20	1.8787E-02
779.38	1.8610E-02
779.56	1.8048E-02
779.74	1.8857E-02
779.91	1.8379E-02
780.09	1.8254E-02
780.27	1.7745E-02
780.45	1.8062E-02
780.62	1.8449E-02
780.80	1.8605E-02
780.98	1.7718E-02
781.16	1.7286E-02
781.34	1.8177E-02
781.51	1.8288E-02
781.69	1.8377E-02
781.87	1.8154E-02
782.05	1.7973E-02
782.22	1.8122E-02
782.40	1.7855E-02
782.58	1.8124E-02
782.76	1.7554E-02
782.93	1.8187E-02
783.11	1.8566E-02
783.29	1.7677E-02
783.47	1.7706E-02
783.64	1.7908E-02
783.82	1.7491E-02
784.00	1.6876E-02
784.17	1.7518E-02
784.35	1.7628E-02
784.53	1.7331E-02
784.71	1.7751E-02
784.88	1.7354E-02
785.06	1.8123E-02
785.24	1.7367E-02
785.42	1.7803E-02
785.59	1.7520E-02
785.77	1.6589E-02
785.95	1.6990E-02
786.12	1.6484E-02
786.30	1.7052E-02
786.48	1.6917E-02
786.65	1.6729E-02
786.83	1.6866E-02
787.01	1.6986E-02
787.19	1.6697E-02
787.36	1.6913E-02
787.54	1.6661E-02
787.72	1.6903E-02
787.89	1.6762E-02
788.07	1.6623E-02
788.25	1.6498E-02
788.42	1.6231E-02
788.60	1.6821E-02
788.78	1.6245E-02
788.96	1.6358E-02
789.13	1.5922E-02
789.31	1.6091E-02
789.49	1.6080E-02
789.66	1.6517E-02
789.84	1.5898E-02
790.02	1.5159E-02
790.19	1.5807E-02
790.37	1.6017E-02
790.55	1.5830E-02
790.72	1.5896E-02
790.90	1.6564E-02
791.08	1.5647E-02
791.25	1.5770E-02
791.43	1.5818E-02
791.61	1.5515E-02
791.78	1.5458E-02
791.96	1.4780E-02
792.14	1.5424E-02
792.31	1.5813E-02
792.49	1.4689E-02
792.67	1.6024E-02
792.84	1.5116E-02
793.02	1.5184E-02
793.19	1.4932E-02
793.37	1.5643E-02
793.55	1.5665E-02
793.72	1.5451E-02
793.90	1.4615E-02
794.08	1.5116E-02
794.25	1.5215E-02
794.43	1.4701E-02
794.61	1.5128E-02
794.78	1.5126E-02
794.96	1.4442E-02
795.13	1.5105E-02
795.31	1.5211E-02
795.49	1.4465E-02
795.66	1.5026E-02
795.84	1.4821E-02
796.01	1.4931E-02
796.19	1.4586E-02
796.37	1.5157E-02
796.54	1.4936E-02
796.72	1.5173E-02
796.90	1.4790E-02
797.07	1.4279E-02
797.25	1.4821E-02
797.42	1.5270E-02
797.60	1.5173E-02
797.78	1.4911E-02
797.95	1.4400E-02
798.13	1.4150E-02
798.30	1.4884E-02
798.48	1.4717E-02
798.66	1.5320E-02
798.83	1.4257E-02
799.01	1.4860E-02
799.18	1.4402E-02
799.36	1.5114E-02
799.53	1.3743E-02
799.71	1.4934E-02
799.89	1.4288E-02
800.06	1.4316E-02
800.24	1.4319E-02
800.41	1.3526E-02
800.59	1.4682E-02
800.76	1.3774E-02
800.94	1.3828E-02
801.12	1.4459E-02
801.29	1.4316E-02
801.47	1.4477E-02
801.64	1.3726E-02
801.82	1.4422E-02
801.99	1.4378E-02
802.17	1.4318E-02
802.34	1.4028E-02
802.52	1.3991E-02
802.70	1.4284E-02
802.87	1.3534E-02
803.05	1.3252E-02
803.22	1.4480E-02
803.40	1.3785E-02
803.57	1.3835E-02
803.75	1.4520E-02
803.92	1.4050E-02
804.10	1.3249E-02
804.27	1.3404E-02
804.45	1.3823E-02
804.63	1.3615E-02
804.80	1.3297E-02
804.98	1.3859E-02
805.15	1.3037E-02
805.33	1.4360E-02
805.50	1.4516E-02
805.68	1.4201E-02
805.85	1.4516E-02
806.03	1.4025E-02
806.20	1.4140E-02
806.38	1.2802E-02
806.55	1.3211E-02
806.73	1.4541E-02
806.90	1.3736E-02
807.08	1.3432E-02
807.25	1.2811E-02
807.43	1.3594E-02
807.60	1.3897E-02
807.78	1.3071E-02
807.95	1.2375E-02
808.13	1.2798E-02
808.30	1.2563E-02
808.48	1.3462E-02
808.65	1.3089E-02
808.83	1.3918E-02
809.00	1.3141E-02
809.18	1.3901E-02
809.35	1.2682E-02
809.53	1.3571E-02
809.70	1.3129E-02
809.88	1.3237E-02
810.05	1.2980E-02
810.23	1.3379E-02
810.40	1.2994E-02
810.57	1.2913E-02
810.75	1.2335E-02
810.92	1.2196E-02
811.10	1.2357E-02
811.27	1.1713E-02
811.45	1.2083E-02
811.62	1.1784E-02
811.80	1.1396E-02
811.97	1.1942E-02
812.15	1.1968E-02
812.32	1.1851E-02
812.50	1.0664E-02
812.67	1.2460E-02
812.84	1.0835E-02
813.02	1.1393E-02
813.19	1.1242E-02
813.37	1.1247E-02
813.54	1.0585E-02
813.72	1.0867E-02
813.89	1.0126E-02
814.07	1.0677E-02
814.24	1.0854E-02
814.41	1.0948E-02
814.59	1.0023E-02
814.76	9.8395E-03
814.94	1.0422E-02
815.11	1.0685E-02
815.29	8.9172E-03
815.46	9.2262E-03
815.63	9.6225E-03
815.81	9.6928E-03
815.98	8.4950E-03
816.16	8.7101E-03
816.33	9.8752E-03
816.50	1.0312E-02
816.68	9.8413E-03
816.85	9.4014E-03
817.03	9.9866E-03
817.20	9.6011E-03
817.37	1.0106E-02
817.55	9.5504E-03
817.72	9.9338E-03
817.90	9.0320E-03
818.07	9.7818E-03
818.24	8.8146E-03
818.42	9.2579E-03
818.59	9.2444E-03
818.77	9.2965E-03
818.94	1.0135E-02
819.11	9.1166E-03
819.29	1.0271E-02
819.46	1.0075E-02
819.64	8.9115E-03
819.81	1.0618E-02
819.98	1.0341E-02
820.16	9.3550E-03
820.33	1.0064E-02
820.50	9.8748E-03
820.68	9.1339E-03
820.85	9.8268E-03
821.02	9.5128E-03
821.20	8.9446E-03
821.37	9.6268E-03
821.55	8.5237E-03
821.72	9.2516E-03
821.89	9.4225E-03
822.07	1.0035E-02
822.24	9.9407E-03
822.41	8.5238E-03
822.59	1.0428E-02
822.76	1.0353E-02
822.93	9.2090E-03
823.11	9.5315E-03
823.28	9.9649E-03
823.45	9.3773E-03
823.63	9.4546E-03
823.80	1.0170E-02
823.97	8.4349E-03
824.15	1.0276E-02
824.32	9.4820E-03
824.49	1.0820E-02
824.67	9.6921E-03
824.84	1.0180E-02
825.01	1.0170E-02
825.19	1.0203E-02
825.36	1.0174E-02
825.53	1.0837E-02
825.71	1.0554E-02
825.88	1.0709E-02
826.05	9.6285E-03
826.23	1.0475E-02
826.40	9.9129E-03
826.57	1.0047E-02
826.75	9.6847E-03
826.92	9.0843E-03
827.09	9.0620E-03
827.26	1.0769E-02
827.44	9.9015E-03
827.61	1.0709E-02
827.78	1.0155E-02
827.96	8.8609E-03
828.13	1.0670E-02
828.30	9.9856E-03
828.48	9.6216E-03
828.65	9.4032E-03
828.82	9.5437E-03
828.99	9.5528E-03
829.17	9.6624E-03
829.34	8.2248E-03
829.51	9.3972E-03
829.68	1.0309E-02
829.86	9.9821E-03
830.03	9.3988E-03
830.20	9.7779E-03
830.38	9.5289E-03
830.55	8.8555E-03
830.72	9.8282E-03
830.89	8.7438E-03
831.07	8.7532E-03
831.24	8.7718E-03
831.41	9.1243E-03
831.58	9.9043E-03
831.76	1.0552E-02
831.93	1.0012E-02
832.10	9.9111E-03
832.27	8.6526E-03
832.45	8.6616E-03
832.62	9.7721E-03
832.79	9.1987E-03
832.96	9.9538E-03
833.14	8.6704E-03
833.31	1.0445E-02
833.48	9.6467E-03
833.65	9.0293E-03
833.83	1.0403E-02
834.00	1.0591E-02
834.17	9.5761E-03
834.34	1.0100E-02
834.51	9.5187E-03
834.69	9.1235E-03
834.86	1.0280E-02
835.03	9.4235E-03
835.20	1.0201E-02
835.38	9.5914E-03
835.55	9.8027E-03
835.72	9.4092E-03
835.89	1.1238E-02
836.06	9.4041E-03
836.24	9.3447E-03
836.41	8.7980E-03
836.58	1.0221E-02
836.75	1.0092E-02
836.92	9.8424E-03
837.10	9.1445E-03
837.27	9.6592E-03
837.44	9.0818E-03
837.61	1.0581E-02
837.78	9.3231E-03
837.96	9.9804E-03
838.13	9.6444E-03
838.30	1.0394E-02
838.47	1.0026E-02
838.64	9.7351E-03
838.82	9.6435E-03
838.99	1.1015E-02
839.16	9.5578E-03
839.33	9.7773E-03
839.50	1.1002E-02
839.67	1.0333E-02
839.85	9.0043E-03
840.02	1.0186E-02
840.19	9.6408E-03
840.36	1.0915E-02
840.53	9.3201E-03
840.70	9.1664E-03
840.88	1.0688E-02
841.05	1.1017E-02
841.22	1.0231E-02
841.39	1.0234E-02
841.56	1.0456E-02
841.73	1.0034E-02
841.91	1.0643E-02
842.08	1.0578E-02
842.25	1.0349E-02
842.42	1.0634E-02
842.59	1.0200E-02
842.76	1.1469E-02
842.93	1.0233E-02
843.11	1.0577E-02
843.28	1.0153E-02
843.45	1.0214E-02
843.62	9.2859E-03
843.79	9.6067E-03
843.96	1.0977E-02
844.13	1.0247E-02
844.30	1.0196E-02
844.48	1.0943E-02
844.65	9.3673E-03
844.82	8.7510E-03
844.99	9.6684E-03
845.16	9.5708E-03
845.33	9.8690E-03
845.50	9.8352E-03
845.67	8.9234E-03
845.84	9.9655E-03
846.02	9.4154E-03
846.19	1.0051E-02
846.36	1.0021E-02
846.53	1.1144E-02
846.70	1.0136E-02
846.87	8.7553E-03
847.04	1.0274E-02
847.21	1.0244E-02
847.38	1.0254E-02
847.55	1.0285E-02
847.73	9.3503E-03
847.90	9.7839E-03
848.07	8.9430E-03
848.24	9.2936E-03
848.41	8.9819E-03
848.58	1.1648E-02
848.75	9.5909E-03
848.92	1.1122E-02
849.09	9.9166E-03
849.26	9.3835E-03
849.43	8.8319E-03
849.60	9.4753E-03
849.77	1.0203E-02
849.94	7.0922E-03
850.12	1.0421E-02
850.29	9.7593E-03
850.46	9.4152E-03
850.63	9.0706E-03
850.80	9.7523E-03
850.97	9.6261E-03
851.14	8.4504E-03
851.31	7.6270E-03
851.48	8.7496E-03
851.65	9.2055E-03
851.82	1.0075E-02
851.99	9.6751E-03
852.16	7.6206E-03
852.33	9.2941E-03
852.50	8.6322E-03
852.67	8.9057E-03
852.84	9.3492E-03
853.01	8.7347E-03
853.18	9.4073E-03
853.35	8.2228E-03
853.52	1.0294E-02
853.69	8.8634E-03
853.86	7.9499E-03
854.03	7.7813E-03
854.21	9.2643E-03
854.38	8.8263E-03
854.55	9.4492E-03
854.72	9.6523E-03
854.89	8.0478E-03
855.06	6.9576E-03
855.23	8.6504E-03
855.40	9.8632E-03
855.57	7.8397E-03
855.74	8.3542E-03
855.91	8.7143E-03
856.08	7.7814E-03
856.25	8.7726E-03
856.42	8.4388E-03
856.59	8.3512E-03
856.76	8.8030E-03
856.93	8.6561E-03
857.10	8.5664E-03
857.27	9.9936E-03
857.44	8.9821E-03
857.61	8.8578E-03
857.77	7.8270E-03
857.94	8.0116E-03
858.11	7.8350E-03
858.28	9.7043E-03
858.45	7.7307E-03
858.62	8.8782E-03
858.79	8.1808E-03
858.96	8.2863E-03
859.13	8.4404E-03
859.30	9.2521E-03
859.47	8.0970E-03
859.64	6.8527E-03
859.81	9.1749E-03
859.98	9.2376E-03
860.15	8.4204E-03
860.32	7.8630E-03
860.49	1.0479E-02
860.66	8.7974E-03
860.83	9.1931E-03
861.00	8.7953E-03
861.17	9.0281E-03
861.34	9.1402E-03
861.51	6.8498E-03
861.68	9.1579E-03
861.84	8.6350E-03
862.01	7.6978E-03
862.18	8.1195E-03
862.35	8.8595E-03
862.52	8.8236E-03
862.69	8.1398E-03
862.86	8.6519E-03
863.03	9.0984E-03
863.20	8.6340E-03
863.37	8.8319E-03
863.54	7.6046E-03
863.71	7.6459E-03
863.88	8.2418E-03
864.05	8.1070E-03
864.21	8.8589E-03
864.38	7.2531E-03
864.55	6.9090E-03
864.72	9.2387E-03
864.89	8.0808E-03
865.06	9.1367E-03
865.23	7.8629E-03
865.40	7.1721E-03
865.57	9.2211E-03
865.74	8.3346E-03
865.90	8.6024E-03
866.07	8.4971E-03
866.24	7.0525E-03
866.41	6.6993E-03
866.58	7.2356E-03
866.75	7.4350E-03
866.92	7.5720E-03
867.09	7.6528E-03
867.26	7.8072E-03
867.42	6.7389E-03
867.59	5.9401E-03
867.76	8.0391E-03
867.93	7.1320E-03
868.10	7.6560E-03
868.27	5.7036E-03
868.44	7.6990E-03
868.60	8.1020E-03
868.77	7.8812E-03
868.94	7.2813E-03
869.11	7.1394E-03
869.28	8.1922E-03
869.45	5.8811E-03
869.62	7.7766E-03
869.78	7.1644E-03
869.95	6.1104E-03
870.12	6.8247E-03
870.29	7.5880E-03
870.46	7.8627E-03
870.63	6.7599E-03
870.80	5.7357E-03
870.96	6.6650E-03
871.13	6.4470E-03
871.30	7.6001E-03
871.47	7.7085E-03
871.64	7.5981E-03
871.81	4.9323E-03
871.97	8.2917E-03
872.14	5.7880E-03
872.31	5.4013E-03
872.48	6.3717E-03
872.65	7.7330E-03
872.81	6.6796E-03
872.98	8.0729E-03
873.15	7.5397E-03
873.32	7.4902E-03
873.49	6.6731E-03
873.66	7.4853E-03
873.82	6.7869E-03
873.99	6.0838E-03
874.16	7.1378E-03
874.33	6.4223E-03
874.50	7.5811E-03
874.66	6.7754E-03
874.83	7.0444E-03
875.00	6.7361E-03
875.17	4.9666E-03
875.34	7.5061E-03
875.50	6.3773E-03
875.67	6.0435E-03
875.84	6.4496E-03
876.01	5.9475E-03
876.17	5.3788E-03
876.34	5.4006E-03
876.51	7.8142E-03
876.68	7.1912E-03
876.85	6.7957E-03
877.01	7.3874E-03
877.18	6.0531E-03
877.35	6.5361E-03
877.52	6.4850E-03
877.68	7.1826E-03
877.85	6.1705E-03
878.02	6.6136E-03
878.19	6.1962E-03
878.35	6.6012E-03
878.52	6.5247E-03
878.69	6.7750E-03
878.86	5.4087E-03
879.02	6.1483E-03
879.19	5.0055E-03
879.36	5.6611E-03
879.53	4.1491E-03
879.69	5.5476E-03
879.86	7.0011E-03
880.03	6.6853E-03
880.20	5.3251E-03
880.36	6.9400E-03
880.53	5.0675E-03
880.70	7.0779E-03
880.87	5.7356E-03
881.03	5.7460E-03
881.20	4.1967E-03
881.37	5.6240E-03
881.54	6.1555E-03
881.70	6.9799E-03
881.87	5.4838E-03
882.04	5.5371E-03
882.20	5.6964E-03
882.37	4.4218E-03
882.54	6.1744E-03
882.71	6.0261E-03
882.87	7.0738E-03
883.04	5.6080E-03
883.21	5.6115E-03
883.37	5.1075E-03
883.54	5.7278E-03
883.71	5.3849E-03
883.87	4.7167E-03
884.04	6.7744E-03
884.21	5.3050E-03
884.38	4.7546E-03
884.54	6.9622E-03
884.71	6.9263E-03
884.88	5.2340E-03
885.04	5.7133E-03
885.21	4.8150E-03
885.38	4.8001E-03
885.54	7.2475E-03
885.71	4.9527E-03
885.88	5.7626E-03
886.04	5.4324E-03
886.21	5.5272E-03
886.38	4.8568E-03
886.54	5.1134E-03
886.71	4.2228E-03
886.88	6.2944E-03
887.04	3.6402E-03
887.21	4.5801E-03
887.38	5.7772E-03
887.54	4.2864E-03
887.71	5.1743E-03
887.88	4.4882E-03
888.04	6.1334E-03
888.21	5.5752E-03
888.38	4.7199E-03
888.54	4.0298E-03
888.71	5.2131E-03
888.87	2.9959E-03
889.04	2.9959E-03
>>>>>End Processed Spectral Data<<<<<
