SpectraSuite Data File
++++++++++++++++++++++++++++++++++++
Date: Wed Jul 25 11:40:55 HST 2007
User: guest
Dark Spectrum Present: Yes
Reference Spectrum Present: No
Number of Sampled Component Spectra: 1
Spectrometers: USB4E01242
Integration Time (usec): 20000 (USB4E01242)
Spectra Averaged: 1 (USB4E01242)
Boxcar Smoothing: 10 (USB4E01242)
Correct for Electrical Dark: No (USB4E01242)
Strobe/Lamp Enabled: No (USB4E01242)
Correct for Detector Non-linearity: No (USB4E01242)
Correct for Stray Light: No (USB4E01242)
Number of Pixels in Processed Spectrum: 3648
>>>>>Begin Processed Spectral Data<<<<<
177.33	0.0000E00
177.55	0.0000E00
177.77	0.0000E00
177.99	0.0000E00
178.21	0.0000E00
178.43	0.0000E00
178.64	-0.0000E00
178.86	-0.0000E00
179.08	0.0000E00
179.30	0.0000E00
179.52	0.0000E00
179.74	0.0000E00
179.96	-0.0000E00
180.18	0.0000E00
180.39	-0.0000E00
180.61	0.0000E00
180.83	0.0000E00
181.05	-0.0000E00
181.27	0.0000E00
181.49	0.0000E00
181.71	0.0000E00
181.92	-0.0000E00
182.14	0.0000E00
182.36	0.0000E00
182.58	-0.0000E00
182.80	0.0000E00
183.02	0.0000E00
183.23	-0.0000E00
183.45	-0.0000E00
183.67	-0.0000E00
183.89	-0.0000E00
184.11	0.0000E00
184.33	-0.0000E00
184.55	0.0000E00
184.76	0.0000E00
184.98	-0.0000E00
185.20	-0.0000E00
185.42	0.0000E00
185.64	-0.0000E00
185.86	0.0000E00
186.07	0.0000E00
186.29	-0.0000E00
186.51	-0.0000E00
186.73	0.0000E00
186.95	0.0000E00
187.17	0.0000E00
187.38	0.0000E00
187.60	0.0000E00
187.82	-0.0000E00
188.04	0.0000E00
188.26	-0.0000E00
188.47	-0.0000E00
188.69	0.0000E00
188.91	0.0000E00
189.13	0.0000E00
189.35	-0.0000E00
189.57	0.0000E00
189.78	0.0000E00
190.00	-0.0000E00
190.22	-0.0000E00
190.44	0.0000E00
190.66	0.0000E00
190.87	0.0000E00
191.09	-0.0000E00
191.31	-0.0000E00
191.53	-0.0000E00
191.75	0.0000E00
191.97	0.0000E00
192.18	0.0000E00
192.40	0.0000E00
192.62	0.0000E00
192.84	0.0000E00
193.06	-0.0000E00
193.27	-0.0000E00
193.49	0.0000E00
193.71	0.0000E00
193.93	-0.0000E00
194.15	-0.0000E00
194.36	0.0000E00
194.58	0.0000E00
194.80	0.0000E00
195.02	0.0000E00
195.23	0.0000E00
195.45	-0.0000E00
195.67	0.0000E00
195.89	0.0000E00
196.11	0.0000E00
196.32	0.0000E00
196.54	-0.0000E00
196.76	-0.0000E00
196.98	0.0000E00
197.20	0.0000E00
197.41	-0.0000E00
197.63	0.0000E00
197.85	-0.0000E00
198.07	-0.0000E00
198.28	0.0000E00
198.50	0.0000E00
198.72	-0.0000E00
198.94	0.0000E00
199.16	-0.0000E00
199.37	-0.0000E00
199.59	0.0000E00
199.81	-0.0000E00
200.03	0.0000E00
200.24	0.0000E00
200.46	-0.0000E00
200.68	-0.0000E00
200.90	-0.0000E00
201.11	-0.0000E00
201.33	-0.0000E00
201.55	-0.0000E00
201.77	0.0000E00
201.98	0.0000E00
202.20	0.0000E00
202.42	0.0000E00
202.64	-0.0000E00
202.86	-0.0000E00
203.07	0.0000E00
203.29	-0.0000E00
203.51	0.0000E00
203.73	0.0000E00
203.94	0.0000E00
204.16	0.0000E00
204.38	0.0000E00
204.60	0.0000E00
204.81	0.0000E00
205.03	-0.0000E00
205.25	0.0000E00
205.46	0.0000E00
205.68	-0.0000E00
205.90	-0.0000E00
206.12	-0.0000E00
206.33	-0.0000E00
206.55	0.0000E00
206.77	-0.0000E00
206.99	-0.0000E00
207.20	-0.0000E00
207.42	0.0000E00
207.64	0.0000E00
207.86	0.0000E00
208.07	0.0000E00
208.29	0.0000E00
208.51	0.0000E00
208.72	0.0000E00
208.94	0.0000E00
209.16	0.0000E00
209.38	-0.0000E00
209.59	0.0000E00
209.81	-0.0000E00
210.03	-0.0000E00
210.25	-0.0000E00
210.46	-0.0000E00
210.68	-0.0000E00
210.90	-0.0000E00
211.11	0.0000E00
211.33	-0.0000E00
211.55	-0.0000E00
211.77	-0.0000E00
211.98	0.0000E00
212.20	-0.0000E00
212.42	0.0000E00
212.63	-0.0000E00
212.85	0.0000E00
213.07	-0.0000E00
213.29	0.0000E00
213.50	-0.0000E00
213.72	-0.0000E00
213.94	0.0000E00
214.15	-0.0000E00
214.37	-0.0000E00
214.59	-0.0000E00
214.80	-0.0000E00
215.02	0.0000E00
215.24	0.0000E00
215.45	-0.0000E00
215.67	0.0000E00
215.89	0.0000E00
216.11	-0.0000E00
216.32	-0.0000E00
216.54	-0.0000E00
216.76	0.0000E00
216.97	0.0000E00
217.19	0.0000E00
217.41	0.0000E00
217.62	0.0000E00
217.84	0.0000E00
218.06	0.0000E00
218.27	0.0000E00
218.49	0.0000E00
218.71	0.0000E00
218.92	0.0000E00
219.14	-0.0000E00
219.36	-0.0000E00
219.57	-0.0000E00
219.79	0.0000E00
220.01	0.0000E00
220.22	0.0000E00
220.44	-0.0000E00
220.66	-0.0000E00
220.88	0.0000E00
221.09	0.0000E00
221.31	-0.0000E00
221.53	-0.0000E00
221.74	0.0000E00
221.96	-0.0000E00
222.17	0.0000E00
222.39	0.0000E00
222.61	-0.0000E00
222.82	0.0000E00
223.04	0.0000E00
223.26	0.0000E00
223.47	-0.0000E00
223.69	-0.0000E00
223.91	0.0000E00
224.12	0.0000E00
224.34	-0.0000E00
224.56	0.0000E00
224.77	0.0000E00
224.99	0.0000E00
225.21	0.0000E00
225.42	0.0000E00
225.64	0.0000E00
225.86	-0.0000E00
226.07	0.0000E00
226.29	0.0000E00
226.50	0.0000E00
226.72	0.0000E00
226.94	0.0000E00
227.15	-0.0000E00
227.37	0.0000E00
227.59	-0.0000E00
227.80	0.0000E00
228.02	0.0000E00
228.24	0.0000E00
228.45	0.0000E00
228.67	-0.0000E00
228.88	0.0000E00
229.10	-0.0000E00
229.32	-0.0000E00
229.53	0.0000E00
229.75	-0.0000E00
229.97	0.0000E00
230.18	0.0000E00
230.40	0.0000E00
230.61	0.0000E00
230.83	0.0000E00
231.05	0.0000E00
231.26	0.0000E00
231.48	0.0000E00
231.70	0.0000E00
231.91	-0.0000E00
232.13	-0.0000E00
232.34	0.0000E00
232.56	0.0000E00
232.78	-0.0000E00
232.99	0.0000E00
233.21	0.0000E00
233.42	0.0000E00
233.64	0.0000E00
233.86	0.0000E00
234.07	-0.0000E00
234.29	0.0000E00
234.50	-0.0000E00
234.72	0.0000E00
234.94	-0.0000E00
235.15	0.0000E00
235.37	-0.0000E00
235.58	0.0000E00
235.80	0.0000E00
236.02	0.0000E00
236.23	0.0000E00
236.45	-0.0000E00
236.66	-0.0000E00
236.88	0.0000E00
237.10	0.0000E00
237.31	0.0000E00
237.53	0.0000E00
237.74	0.0000E00
237.96	0.0000E00
238.17	-0.0000E00
238.39	0.0000E00
238.61	0.0000E00
238.82	-0.0000E00
239.04	0.0000E00
239.25	-0.0000E00
239.47	-0.0000E00
239.69	-0.0000E00
239.90	-0.0000E00
240.12	0.0000E00
240.33	0.0000E00
240.55	0.0000E00
240.76	0.0000E00
240.98	-0.0000E00
241.20	0.0000E00
241.41	0.0000E00
241.63	-0.0000E00
241.84	-0.0000E00
242.06	0.0000E00
242.27	-0.0000E00
242.49	-0.0000E00
242.70	0.0000E00
242.92	0.0000E00
243.14	0.0000E00
243.35	-0.0000E00
243.57	0.0000E00
243.78	-0.0000E00
244.00	0.0000E00
244.21	-0.0000E00
244.43	0.0000E00
244.64	0.0000E00
244.86	0.0000E00
245.08	-0.0000E00
245.29	0.0000E00
245.51	0.0000E00
245.72	-0.0000E00
245.94	0.0000E00
246.15	0.0000E00
246.37	0.0000E00
246.58	-0.0000E00
246.80	0.0000E00
247.01	0.0000E00
247.23	-0.0000E00
247.45	0.0000E00
247.66	0.0000E00
247.88	0.0000E00
248.09	0.0000E00
248.31	-0.0000E00
248.52	-0.0000E00
248.74	-0.0000E00
248.95	0.0000E00
249.17	0.0000E00
249.38	-0.0000E00
249.60	0.0000E00
249.81	0.0000E00
250.03	0.0000E00
250.24	-0.0000E00
250.46	0.0000E00
250.67	-0.0000E00
250.89	0.0000E00
251.10	-0.0000E00
251.32	0.0000E00
251.53	-0.0000E00
251.75	-0.0000E00
251.97	0.0000E00
252.18	0.0000E00
252.40	-0.0000E00
252.61	0.0000E00
252.83	0.0000E00
253.04	-0.0000E00
253.26	0.0000E00
253.47	-0.0000E00
253.69	0.0000E00
253.90	0.0000E00
254.12	-0.0000E00
254.33	-0.0000E00
254.55	-0.0000E00
254.76	0.0000E00
254.98	0.0000E00
255.19	-0.0000E00
255.41	0.0000E00
255.62	0.0000E00
255.84	-0.0000E00
256.05	-0.0000E00
256.27	0.0000E00
256.48	0.0000E00
256.70	0.0000E00
256.91	-0.0000E00
257.13	0.0000E00
257.34	0.0000E00
257.55	0.0000E00
257.77	0.0000E00
257.98	-0.0000E00
258.20	0.0000E00
258.41	0.0000E00
258.63	-0.0000E00
258.84	-0.0000E00
259.06	0.0000E00
259.27	0.0000E00
259.49	0.0000E00
259.70	0.0000E00
259.92	-0.0000E00
260.13	0.0000E00
260.35	-0.0000E00
260.56	-0.0000E00
260.78	-0.0000E00
260.99	-0.0000E00
261.21	0.0000E00
261.42	-0.0000E00
261.63	-0.0000E00
261.85	-0.0000E00
262.06	-0.0000E00
262.28	0.0000E00
262.49	-0.0000E00
262.71	0.0000E00
262.92	-0.0000E00
263.14	0.0000E00
263.35	-0.0000E00
263.57	0.0000E00
263.78	0.0000E00
264.00	0.0000E00
264.21	-0.0000E00
264.42	-0.0000E00
264.64	-0.0000E00
264.85	0.0000E00
265.07	-0.0000E00
265.28	0.0000E00
265.50	-0.0000E00
265.71	0.0000E00
265.93	-0.0000E00
266.14	-0.0000E00
266.35	0.0000E00
266.57	0.0000E00
266.78	0.0000E00
267.00	0.0000E00
267.21	0.0000E00
267.43	0.0000E00
267.64	-0.0000E00
267.85	-0.0000E00
268.07	0.0000E00
268.28	0.0000E00
268.50	0.0000E00
268.71	0.0000E00
268.93	0.0000E00
269.14	0.0000E00
269.35	-0.0000E00
269.57	0.0000E00
269.78	0.0000E00
270.00	0.0000E00
270.21	0.0000E00
270.43	0.0000E00
270.64	0.0000E00
270.85	-0.0000E00
271.07	-0.0000E00
271.28	-0.0000E00
271.50	-0.0000E00
271.71	0.0000E00
271.92	0.0000E00
272.14	0.0000E00
272.35	0.0000E00
272.57	0.0000E00
272.78	0.0000E00
272.99	0.0000E00
273.21	-0.0000E00
273.42	0.0000E00
273.64	0.0000E00
273.85	0.0000E00
274.07	0.0000E00
274.28	0.0000E00
274.49	0.0000E00
274.71	0.0000E00
274.92	0.0000E00
275.13	0.0000E00
275.35	0.0000E00
275.56	-0.0000E00
275.78	0.0000E00
275.99	-0.0000E00
276.20	0.0000E00
276.42	-0.0000E00
276.63	-0.0000E00
276.85	-0.0000E00
277.06	0.0000E00
277.27	0.0000E00
277.49	0.0000E00
277.70	0.0000E00
277.92	0.0000E00
278.13	0.0000E00
278.34	0.0000E00
278.56	0.0000E00
278.77	0.0000E00
278.98	0.0000E00
279.20	0.0000E00
279.41	-0.0000E00
279.63	0.0000E00
279.84	-0.0000E00
280.05	0.0000E00
280.27	-0.0000E00
280.48	0.0000E00
280.69	-0.0000E00
280.91	-0.0000E00
281.12	-0.0000E00
281.33	0.0000E00
281.55	-0.0000E00
281.76	0.0000E00
281.98	0.0000E00
282.19	-0.0000E00
282.40	0.0000E00
282.62	0.0000E00
282.83	-0.0000E00
283.04	-0.0000E00
283.26	0.0000E00
283.47	0.0000E00
283.68	0.0000E00
283.90	-0.0000E00
284.11	0.0000E00
284.32	-0.0000E00
284.54	-0.0000E00
284.75	0.0000E00
284.96	0.0000E00
285.18	-0.0000E00
285.39	-0.0000E00
285.60	0.0000E00
285.82	-0.0000E00
286.03	0.0000E00
286.24	0.0000E00
286.46	0.0000E00
286.67	0.0000E00
286.88	0.0000E00
287.10	0.0000E00
287.31	0.0000E00
287.52	0.0000E00
287.74	-0.0000E00
287.95	0.0000E00
288.16	0.0000E00
288.38	0.0000E00
288.59	-0.0000E00
288.80	0.0000E00
289.02	-0.0000E00
289.23	-0.0000E00
289.44	0.0000E00
289.66	0.0000E00
289.87	0.0000E00
290.08	0.0000E00
290.30	-0.0000E00
290.51	-0.0000E00
290.72	-0.0000E00
290.94	0.0000E00
291.15	-0.0000E00
291.36	0.0000E00
291.57	0.0000E00
291.79	0.0000E00
292.00	-0.0000E00
292.21	0.0000E00
292.43	-0.0000E00
292.64	0.0000E00
292.85	0.0000E00
293.07	0.0000E00
293.28	0.0000E00
293.49	0.0000E00
293.70	0.0000E00
293.92	0.0000E00
294.13	0.0000E00
294.34	0.0000E00
294.56	0.0000E00
294.77	0.0000E00
294.98	0.0000E00
295.20	0.0000E00
295.41	-0.0000E00
295.62	0.0000E00
295.83	-0.0000E00
296.05	0.0000E00
296.26	-0.0000E00
296.47	0.0000E00
296.69	0.0000E00
296.90	0.0000E00
297.11	0.0000E00
297.32	-0.0000E00
297.54	0.0000E00
297.75	-0.0000E00
297.96	0.0000E00
298.17	0.0000E00
298.39	0.0000E00
298.60	0.0000E00
298.81	0.0000E00
299.03	0.0000E00
299.24	0.0000E00
299.45	-0.0000E00
299.66	0.0000E00
299.88	0.0000E00
300.09	6.7414E-04
300.30	2.5467E-04
300.51	9.2813E-04
300.73	1.1323E-04
300.94	3.8761E-04
301.15	6.8100E-04
301.36	-1.9986E-06
301.58	3.1375E-04
301.79	1.3538E-03
302.00	4.7985E-04
302.21	1.5944E-04
302.43	7.5527E-04
302.64	9.0498E-05
302.85	7.6615E-04
303.06	-1.7327E-04
303.28	6.2598E-04
303.49	9.7909E-07
303.70	1.1927E-03
303.91	1.9477E-04
304.13	1.9919E-06
304.34	3.3401E-04
304.55	1.3418E-03
304.76	-2.0418E-04
304.98	1.9312E-04
305.19	1.1344E-03
305.40	6.9700E-05
305.61	1.0549E-03
305.82	4.3662E-04
306.04	1.0652E-03
306.25	7.8297E-05
306.46	1.2831E-03
306.67	4.2398E-04
306.89	8.1350E-04
307.10	1.2856E-03
307.31	1.3801E-03
307.52	9.4410E-04
307.74	1.9301E-03
307.95	1.8344E-03
308.16	2.2600E-04
308.37	1.5043E-03
308.58	1.0748E-03
308.80	1.7192E-03
309.01	1.5014E-03
309.22	2.3714E-04
309.43	6.5874E-04
309.64	1.4258E-03
309.86	1.7894E-03
310.07	1.0091E-03
310.28	1.4792E-03
310.49	1.6877E-03
310.70	8.6069E-04
310.92	1.5394E-03
311.13	9.4142E-04
311.34	1.2999E-03
311.55	1.4164E-03
311.76	1.1007E-03
311.98	1.6456E-03
312.19	1.4152E-03
312.40	7.0089E-04
312.61	9.5425E-04
312.82	1.3053E-03
313.04	5.9123E-04
313.25	1.4661E-03
313.46	8.7764E-04
313.67	9.4353E-04
313.88	1.0202E-03
314.10	8.3649E-04
314.31	8.1385E-04
314.52	8.5845E-04
314.73	9.3784E-04
314.94	1.1393E-03
315.16	1.7050E-03
315.37	1.8768E-03
315.58	1.1487E-03
315.79	1.4677E-03
316.00	1.5631E-03
316.21	1.6598E-03
316.43	7.0085E-04
316.64	1.0521E-03
316.85	7.6643E-04
317.06	1.4168E-03
317.27	1.6709E-03
317.48	1.1106E-03
317.70	1.2640E-03
317.91	1.2988E-03
318.12	1.5344E-03
318.33	1.0191E-03
318.54	1.2416E-03
318.75	1.7146E-03
318.97	1.7434E-03
319.18	1.5395E-03
319.39	1.4458E-03
319.60	1.4358E-03
319.81	1.7644E-03
320.02	1.4584E-03
320.24	1.4191E-03
320.45	1.5304E-03
320.66	1.0559E-03
320.87	1.4803E-03
321.08	1.8202E-03
321.29	1.6336E-03
321.50	1.2315E-03
321.72	1.0643E-03
321.93	1.7605E-03
322.14	1.6179E-03
322.35	1.6699E-03
322.56	1.9928E-03
322.77	2.3240E-03
322.98	1.7612E-03
323.20	2.1966E-03
323.41	1.4651E-03
323.62	1.4322E-03
323.83	1.7003E-03
324.04	1.3453E-03
324.25	1.3031E-03
324.46	1.7599E-03
324.67	1.6415E-03
324.89	1.4685E-03
325.10	1.5184E-03
325.31	2.1387E-03
325.52	2.2211E-03
325.73	1.7378E-03
325.94	1.9568E-03
326.15	1.3047E-03
326.36	2.2552E-03
326.58	2.9431E-03
326.79	2.5073E-03
327.00	1.0058E-03
327.21	2.2173E-03
327.42	2.1762E-03
327.63	2.2527E-03
327.84	2.2135E-03
328.05	2.5436E-03
328.26	1.6118E-03
328.48	2.1991E-03
328.69	3.1275E-03
328.90	2.2741E-03
329.11	2.3133E-03
329.32	2.3824E-03
329.53	1.7211E-03
329.74	2.3202E-03
329.95	2.4584E-03
330.16	2.2182E-03
330.37	2.1727E-03
330.59	2.8163E-03
330.80	2.9352E-03
331.01	2.9461E-03
331.22	2.9083E-03
331.43	2.3854E-03
331.64	1.9707E-03
331.85	3.0850E-03
332.06	2.9059E-03
332.27	2.3777E-03
332.48	3.3993E-03
332.69	2.6402E-03
332.91	3.0455E-03
333.12	2.6573E-03
333.33	4.0232E-03
333.54	2.5156E-03
333.75	1.8866E-03
333.96	2.5616E-03
334.17	2.0267E-03
334.38	2.6723E-03
334.59	3.7759E-03
334.80	2.6384E-03
335.01	2.6738E-03
335.22	2.4127E-03
335.43	2.5676E-03
335.64	2.7459E-03
335.86	3.3793E-03
336.07	2.7411E-03
336.28	1.6913E-03
336.49	3.5287E-03
336.70	2.3316E-03
336.91	2.6217E-03
337.12	2.2918E-03
337.33	2.9366E-03
337.54	2.4896E-03
337.75	2.3419E-03
337.96	3.0409E-03
338.17	3.0178E-03
338.38	2.4469E-03
338.59	3.0687E-03
338.80	1.8037E-03
339.01	3.4090E-03
339.22	3.2282E-03
339.43	3.2353E-03
339.65	2.9882E-03
339.86	2.4144E-03
340.07	2.5358E-03
340.28	3.1764E-03
340.49	2.5239E-03
340.70	3.0420E-03
340.91	2.5342E-03
341.12	2.2658E-03
341.33	3.0861E-03
341.54	3.2493E-03
341.75	2.5616E-03
341.96	2.8049E-03
342.17	3.2336E-03
342.38	2.4190E-03
342.59	2.6921E-03
342.80	2.5793E-03
343.01	3.1034E-03
343.22	2.9369E-03
343.43	2.5202E-03
343.64	2.6148E-03
343.85	2.6827E-03
344.06	2.4217E-03
344.27	3.1991E-03
344.48	4.0474E-03
344.69	3.1100E-03
344.90	3.2131E-03
345.11	3.2199E-03
345.32	2.9539E-03
345.53	2.0480E-03
345.74	3.4566E-03
345.95	2.3174E-03
346.16	2.9245E-03
346.37	3.0403E-03
346.58	3.1658E-03
346.79	2.5895E-03
347.00	3.6497E-03
347.21	3.8583E-03
347.42	2.8922E-03
347.63	2.2880E-03
347.84	3.3008E-03
348.05	3.6676E-03
348.26	2.9947E-03
348.47	3.3924E-03
348.68	3.0823E-03
348.89	2.0383E-03
349.10	3.1307E-03
349.31	4.0080E-03
349.52	2.7698E-03
349.73	3.2322E-03
349.94	3.3442E-03
350.15	2.6616E-03
350.36	3.7923E-03
350.57	3.6374E-03
350.78	3.8534E-03
350.99	3.7943E-03
351.20	3.3710E-03
351.41	3.9768E-03
351.62	3.1490E-03
351.83	3.1746E-03
352.04	3.2492E-03
352.25	3.4847E-03
352.46	3.1614E-03
352.67	2.9857E-03
352.88	3.8214E-03
353.09	2.1263E-03
353.30	2.9451E-03
353.51	3.2977E-03
353.72	4.1203E-03
353.93	2.9388E-03
354.14	2.7306E-03
354.35	3.8394E-03
354.56	3.2501E-03
354.77	4.4476E-03
354.98	2.7877E-03
355.19	3.3193E-03
355.39	3.2255E-03
355.60	3.1179E-03
355.81	3.5302E-03
356.02	4.1381E-03
356.23	2.7305E-03
356.44	2.3434E-03
356.65	4.0822E-03
356.86	3.3721E-03
357.07	3.1487E-03
357.28	3.9488E-03
357.49	3.6646E-03
357.70	4.0621E-03
357.91	2.8724E-03
358.12	2.6762E-03
358.33	3.5685E-03
358.54	3.9733E-03
358.75	3.4392E-03
358.96	3.8437E-03
359.16	2.4480E-03
359.37	4.2535E-03
359.58	3.7347E-03
359.79	3.1399E-03
360.00	3.3863E-03
360.21	3.7181E-03
360.42	3.1130E-03
360.63	4.7161E-03
360.84	4.5525E-03
361.05	2.7591E-03
361.26	3.3880E-03
361.47	4.5154E-03
361.68	3.6330E-03
361.88	3.8053E-03
362.09	3.4014E-03
362.30	4.1692E-03
362.51	3.4170E-03
362.72	4.3372E-03
362.93	3.8087E-03
363.14	4.0722E-03
363.35	3.6930E-03
363.56	3.3217E-03
363.77	4.1929E-03
363.98	4.0622E-03
364.18	4.8277E-03
364.39	4.4410E-03
364.60	4.1114E-03
364.81	4.3996E-03
365.02	4.1977E-03
365.23	4.4924E-03
365.44	4.2649E-03
365.65	3.8793E-03
365.86	3.1178E-03
366.07	4.4485E-03
366.27	4.1338E-03
366.48	4.4692E-03
366.69	4.0594E-03
366.90	4.2433E-03
367.11	4.0591E-03
367.32	4.1218E-03
367.53	3.9476E-03
367.74	3.3546E-03
367.95	3.3691E-03
368.15	3.9633E-03
368.36	4.1424E-03
368.57	3.0316E-03
368.78	4.5518E-03
368.99	3.8339E-03
369.20	3.5236E-03
369.41	4.7747E-03
369.62	4.0650E-03
369.82	4.9573E-03
370.03	3.8593E-03
370.24	4.7239E-03
370.45	3.8953E-03
370.66	3.3825E-03
370.87	3.6348E-03
371.08	3.7014E-03
371.28	3.8136E-03
371.49	3.9489E-03
371.70	3.7830E-03
371.91	3.7329E-03
372.12	3.4456E-03
372.33	3.7214E-03
372.54	4.0041E-03
372.74	4.0705E-03
372.95	2.9765E-03
373.16	4.2918E-03
373.37	4.2208E-03
373.58	3.1134E-03
373.79	4.1349E-03
374.00	3.4512E-03
374.20	4.5345E-03
374.41	4.4127E-03
374.62	3.5979E-03
374.83	3.6155E-03
375.04	3.9568E-03
375.25	4.0899E-03
375.45	2.7709E-03
375.66	4.2169E-03
375.87	3.9284E-03
376.08	4.6575E-03
376.29	4.5301E-03
376.50	4.2073E-03
376.70	3.6498E-03
376.91	4.2012E-03
377.12	4.2253E-03
377.33	3.2510E-03
377.54	3.5987E-03
377.75	4.6048E-03
377.95	3.9652E-03
378.16	4.0664E-03
378.37	3.4828E-03
378.58	4.4199E-03
378.79	3.3252E-03
379.00	4.5944E-03
379.20	3.7869E-03
379.41	4.3668E-03
379.62	4.4800E-03
379.83	4.0138E-03
380.04	4.1691E-03
380.24	4.1537E-03
380.45	3.0412E-03
380.66	3.5837E-03
380.87	4.0274E-03
381.08	4.2276E-03
381.28	3.3931E-03
381.49	4.0024E-03
381.70	3.4195E-03
381.91	3.6678E-03
382.12	4.0673E-03
382.32	3.4365E-03
382.53	4.1276E-03
382.74	3.2601E-03
382.95	3.6985E-03
383.16	3.9806E-03
383.36	2.7635E-03
383.57	3.7881E-03
383.78	4.0884E-03
383.99	3.2515E-03
384.20	3.5255E-03
384.40	3.6306E-03
384.61	4.4237E-03
384.82	4.5657E-03
385.03	4.1924E-03
385.23	4.2494E-03
385.44	4.0026E-03
385.65	4.5941E-03
385.86	3.6504E-03
386.07	5.3488E-03
386.27	3.1914E-03
386.48	3.8617E-03
386.69	4.4908E-03
386.90	2.8436E-03
387.10	3.5808E-03
387.31	4.4417E-03
387.52	3.6204E-03
387.73	4.1647E-03
387.94	4.6129E-03
388.14	3.4146E-03
388.35	3.9437E-03
388.56	5.4386E-03
388.77	4.5709E-03
388.97	4.7447E-03
389.18	5.0171E-03
389.39	4.3579E-03
389.60	4.6861E-03
389.80	5.3803E-03
390.01	5.0207E-03
390.22	4.8807E-03
390.43	3.9178E-03
390.63	4.3570E-03
390.84	4.3914E-03
391.05	5.3764E-03
391.26	4.5449E-03
391.46	4.3048E-03
391.67	4.3123E-03
391.88	3.4192E-03
392.09	3.4795E-03
392.29	4.7085E-03
392.50	3.8967E-03
392.71	4.3539E-03
392.92	4.5943E-03
393.12	4.4878E-03
393.33	4.9392E-03
393.54	4.1404E-03
393.74	3.5285E-03
393.95	3.9351E-03
394.16	4.9648E-03
394.37	4.3468E-03
394.57	4.3373E-03
394.78	4.8902E-03
394.99	4.6658E-03
395.19	4.2524E-03
395.40	4.1615E-03
395.61	4.1026E-03
395.82	5.0180E-03
396.02	4.2918E-03
396.23	4.9803E-03
396.44	5.2437E-03
396.65	4.2784E-03
396.85	5.3079E-03
397.06	4.9168E-03
397.27	4.9899E-03
397.47	5.4512E-03
397.68	5.0203E-03
397.89	4.5403E-03
398.09	4.3528E-03
398.30	4.7325E-03
398.51	4.2673E-03
398.72	4.8078E-03
398.92	5.5252E-03
399.13	5.4247E-03
399.34	6.1481E-03
399.54	6.1612E-03
399.75	5.8086E-03
399.96	4.8719E-03
400.16	4.9823E-03
400.37	5.6708E-03
400.58	5.5515E-03
400.78	5.8919E-03
400.99	5.0630E-03
401.20	6.1500E-03
401.41	5.8849E-03
401.61	5.0228E-03
401.82	5.7020E-03
402.03	5.1821E-03
402.23	5.1663E-03
402.44	5.9850E-03
402.65	5.4346E-03
402.85	5.5471E-03
403.06	5.4762E-03
403.27	5.5579E-03
403.47	5.6709E-03
403.68	5.1460E-03
403.89	5.9749E-03
404.09	5.5119E-03
404.30	4.8281E-03
404.51	5.7873E-03
404.71	5.7762E-03
404.92	6.1429E-03
405.13	4.6778E-03
405.33	5.1983E-03
405.54	5.2707E-03
405.75	5.7548E-03
405.95	5.6293E-03
406.16	4.4249E-03
406.37	5.5603E-03
406.57	5.5315E-03
406.78	5.9416E-03
406.99	5.7234E-03
407.19	6.1226E-03
407.40	6.2769E-03
407.60	6.0455E-03
407.81	5.9199E-03
408.02	5.1392E-03
408.22	5.1789E-03
408.43	6.1188E-03
408.64	5.7086E-03
408.84	5.6596E-03
409.05	4.6601E-03
409.26	6.1749E-03
409.46	6.0284E-03
409.67	5.5606E-03
409.87	6.0067E-03
410.08	5.5022E-03
410.29	6.4027E-03
410.49	5.0507E-03
410.70	5.9884E-03
410.91	5.6180E-03
411.11	6.2840E-03
411.32	5.8384E-03
411.52	5.0428E-03
411.73	6.2574E-03
411.94	6.0256E-03
412.14	6.4669E-03
412.35	5.7800E-03
412.56	6.4738E-03
412.76	6.4904E-03
412.97	5.6782E-03
413.17	6.2858E-03
413.38	6.8080E-03
413.59	5.8620E-03
413.79	6.0518E-03
414.00	6.4753E-03
414.20	6.7932E-03
414.41	5.6697E-03
414.62	6.6631E-03
414.82	6.0341E-03
415.03	5.3952E-03
415.23	6.5517E-03
415.44	5.7557E-03
415.65	6.4269E-03
415.85	5.6945E-03
416.06	6.6815E-03
416.26	6.4132E-03
416.47	6.4548E-03
416.68	6.9291E-03
416.88	7.2410E-03
417.09	5.2350E-03
417.29	6.3145E-03
417.50	6.6897E-03
417.71	6.4592E-03
417.91	6.2479E-03
418.12	6.2361E-03
418.32	6.8298E-03
418.53	6.8533E-03
418.73	5.8819E-03
418.94	6.1126E-03
419.15	5.9445E-03
419.35	6.8299E-03
419.56	6.4766E-03
419.76	5.4624E-03
419.97	7.1546E-03
420.17	6.2140E-03
420.38	5.2293E-03
420.59	6.6994E-03
420.79	7.0078E-03
421.00	6.0041E-03
421.20	5.2873E-03
421.41	6.0859E-03
421.61	5.8600E-03
421.82	6.4122E-03
422.02	6.1535E-03
422.23	4.8318E-03
422.44	6.9486E-03
422.64	5.8310E-03
422.85	6.1305E-03
423.05	6.2960E-03
423.26	6.3557E-03
423.46	6.3127E-03
423.67	5.8234E-03
423.87	6.0426E-03
424.08	5.8446E-03
424.29	5.9430E-03
424.49	6.7938E-03
424.70	5.4554E-03
424.90	6.5750E-03
425.11	6.7192E-03
425.31	6.5639E-03
425.52	6.8139E-03
425.72	6.0611E-03
425.93	6.3511E-03
426.13	6.0113E-03
426.34	6.0567E-03
426.54	6.3305E-03
426.75	6.2912E-03
426.95	6.4443E-03
427.16	6.5993E-03
427.36	6.3806E-03
427.57	5.7002E-03
427.78	5.7869E-03
427.98	5.8104E-03
428.19	6.2216E-03
428.39	5.6794E-03
428.60	5.7494E-03
428.80	5.8113E-03
429.01	6.4888E-03
429.21	5.0543E-03
429.42	6.7129E-03
429.62	6.5512E-03
429.83	5.9341E-03
430.03	5.3018E-03
430.24	6.4020E-03
430.44	5.4858E-03
430.65	6.1827E-03
430.85	6.3639E-03
431.06	5.7507E-03
431.26	6.4013E-03
431.47	5.2863E-03
431.67	7.1084E-03
431.88	6.4329E-03
432.08	6.6662E-03
432.29	6.7993E-03
432.49	6.1099E-03
432.70	6.1207E-03
432.90	7.0821E-03
433.11	6.6964E-03
433.31	5.3845E-03
433.52	6.4906E-03
433.72	6.0155E-03
433.93	6.3102E-03
434.13	6.2871E-03
434.34	7.2280E-03
434.54	5.8762E-03
434.74	6.3372E-03
434.95	6.4633E-03
435.15	6.2966E-03
435.36	6.5132E-03
435.56	5.9134E-03
435.77	6.5849E-03
435.97	5.9384E-03
436.18	7.7683E-03
436.38	6.8858E-03
436.59	6.2016E-03
436.79	7.0426E-03
437.00	6.9536E-03
437.20	6.3873E-03
437.41	6.1770E-03
437.61	6.8993E-03
437.81	6.6372E-03
438.02	6.4938E-03
438.22	6.8243E-03
438.43	6.1218E-03
438.63	7.4305E-03
438.84	6.5163E-03
439.04	6.4753E-03
439.25	6.6967E-03
439.45	6.0476E-03
439.66	6.0994E-03
439.86	6.2745E-03
440.06	7.3553E-03
440.27	6.2217E-03
440.47	5.6785E-03
440.68	6.8527E-03
440.88	6.4910E-03
441.09	6.9447E-03
441.29	7.0017E-03
441.49	6.7432E-03
441.70	7.4997E-03
441.90	6.7006E-03
442.11	7.2243E-03
442.31	7.5957E-03
442.52	7.0194E-03
442.72	6.5013E-03
442.92	6.2941E-03
443.13	7.1632E-03
443.33	6.1717E-03
443.54	6.7613E-03
443.74	6.8650E-03
443.95	7.2763E-03
444.15	6.8711E-03
444.35	7.4009E-03
444.56	6.6958E-03
444.76	6.2889E-03
444.97	8.0427E-03
445.17	7.3645E-03
445.37	8.1101E-03
445.58	6.5382E-03
445.78	6.9783E-03
445.99	6.2848E-03
446.19	6.3346E-03
446.39	6.4735E-03
446.60	6.0746E-03
446.80	6.1995E-03
447.01	6.9194E-03
447.21	7.6032E-03
447.41	6.3519E-03
447.62	7.3847E-03
447.82	6.7976E-03
448.03	7.2550E-03
448.23	7.1216E-03
448.43	7.1867E-03
448.64	7.5929E-03
448.84	7.2919E-03
449.05	6.8204E-03
449.25	7.4796E-03
449.45	6.8516E-03
449.66	7.1418E-03
449.86	7.1619E-03
450.07	6.6030E-03
450.27	7.3888E-03
450.47	6.8849E-03
450.68	7.3706E-03
450.88	6.8045E-03
451.08	7.1763E-03
451.29	7.1771E-03
451.49	7.4592E-03
451.70	7.2605E-03
451.90	7.6732E-03
452.10	7.4653E-03
452.31	6.5479E-03
452.51	7.3919E-03
452.71	7.0885E-03
452.92	7.1371E-03
453.12	7.7030E-03
453.32	7.3013E-03
453.53	6.2399E-03
453.73	6.3344E-03
453.93	6.4264E-03
454.14	7.5061E-03
454.34	7.3733E-03
454.55	7.5213E-03
454.75	7.3311E-03
454.95	6.4760E-03
455.16	7.9933E-03
455.36	6.6280E-03
455.56	7.9416E-03
455.77	7.7131E-03
455.97	7.4297E-03
456.17	6.8251E-03
456.38	7.4648E-03
456.58	7.9764E-03
456.78	7.1511E-03
456.99	6.3250E-03
457.19	7.1810E-03
457.39	6.9971E-03
457.60	7.3589E-03
457.80	7.2171E-03
458.00	6.9854E-03
458.21	7.8248E-03
458.41	7.6713E-03
458.61	7.0589E-03
458.82	6.9616E-03
459.02	6.6103E-03
459.22	7.9961E-03
459.43	7.7649E-03
459.63	7.5113E-03
459.83	6.7690E-03
460.03	7.4114E-03
460.24	7.6472E-03
460.44	6.8835E-03
460.64	6.6278E-03
460.85	7.6311E-03
461.05	7.1973E-03
461.25	7.3451E-03
461.46	6.9097E-03
461.66	6.5209E-03
461.86	7.1709E-03
462.07	7.5644E-03
462.27	7.1892E-03
462.47	7.7444E-03
462.67	7.0282E-03
462.88	7.6109E-03
463.08	6.3997E-03
463.28	7.1102E-03
463.49	7.4763E-03
463.69	7.2511E-03
463.89	7.1518E-03
464.09	7.3026E-03
464.30	6.8611E-03
464.50	7.5957E-03
464.70	7.4735E-03
464.91	6.3749E-03
465.11	6.4728E-03
465.31	6.4336E-03
465.51	7.0273E-03
465.72	6.9786E-03
465.92	6.8217E-03
466.12	6.2343E-03
466.33	6.8997E-03
466.53	6.8239E-03
466.73	6.6551E-03
466.93	7.0487E-03
467.14	6.2923E-03
467.34	7.9624E-03
467.54	7.2143E-03
467.74	7.0406E-03
467.95	6.8843E-03
468.15	6.5646E-03
468.35	7.1788E-03
468.55	7.5166E-03
468.76	7.2601E-03
468.96	6.2597E-03
469.16	6.7817E-03
469.37	6.7402E-03
469.57	7.1122E-03
469.77	6.5995E-03
469.97	6.9155E-03
470.18	7.3675E-03
470.38	7.3365E-03
470.58	6.8926E-03
470.78	7.2189E-03
470.99	7.2846E-03
471.19	6.5772E-03
471.39	6.8848E-03
471.59	6.0092E-03
471.79	6.5527E-03
472.00	6.7424E-03
472.20	6.9433E-03
472.40	6.2100E-03
472.60	6.5484E-03
472.81	7.4279E-03
473.01	7.1875E-03
473.21	6.4398E-03
473.41	5.5984E-03
473.62	6.8003E-03
473.82	7.1949E-03
474.02	6.5333E-03
474.22	6.5454E-03
474.42	7.3852E-03
474.63	6.7915E-03
474.83	6.5206E-03
475.03	6.4948E-03
475.23	6.7761E-03
475.44	6.6130E-03
475.64	6.3613E-03
475.84	6.6977E-03
476.04	6.3331E-03
476.24	6.6736E-03
476.45	6.7225E-03
476.65	6.2263E-03
476.85	6.1670E-03
477.05	6.6782E-03
477.25	6.9377E-03
477.46	6.5495E-03
477.66	6.3920E-03
477.86	6.8297E-03
478.06	6.4065E-03
478.26	6.6862E-03
478.47	6.4772E-03
478.67	7.6029E-03
478.87	6.4079E-03
479.07	6.0460E-03
479.27	6.6927E-03
479.47	6.7958E-03
479.68	6.7460E-03
479.88	6.8229E-03
480.08	6.6263E-03
480.28	6.7983E-03
480.48	6.6096E-03
480.69	6.9852E-03
480.89	6.3424E-03
481.09	6.6231E-03
481.29	7.1979E-03
481.49	5.6598E-03
481.69	6.7846E-03
481.90	6.6048E-03
482.10	6.6386E-03
482.30	6.8298E-03
482.50	6.7429E-03
482.70	6.3852E-03
482.90	6.4329E-03
483.11	6.5275E-03
483.31	6.5288E-03
483.51	5.7365E-03
483.71	5.9678E-03
483.91	6.0965E-03
484.11	6.2307E-03
484.32	6.0772E-03
484.52	6.3831E-03
484.72	6.2706E-03
484.92	6.0912E-03
485.12	6.0023E-03
485.32	5.9558E-03
485.52	5.8062E-03
485.73	5.4979E-03
485.93	5.4238E-03
486.13	5.4901E-03
486.33	5.6707E-03
486.53	5.9020E-03
486.73	6.0339E-03
486.93	5.6622E-03
487.14	6.3131E-03
487.34	6.1209E-03
487.54	6.0980E-03
487.74	6.2871E-03
487.94	5.3457E-03
488.14	6.0332E-03
488.34	5.9799E-03
488.54	5.9563E-03
488.75	5.8097E-03
488.95	5.9327E-03
489.15	5.7834E-03
489.35	5.6380E-03
489.55	5.7710E-03
489.75	6.0080E-03
489.95	5.7581E-03
490.15	5.7999E-03
490.36	6.0877E-03
490.56	5.8371E-03
490.76	6.2620E-03
490.96	5.9636E-03
491.16	6.1837E-03
491.36	6.0000E-03
491.56	5.9509E-03
491.76	5.3148E-03
491.96	5.9829E-03
492.17	5.8303E-03
492.37	6.0955E-03
492.57	6.3026E-03
492.77	6.3056E-03
492.97	6.4777E-03
493.17	6.2459E-03
493.37	6.1736E-03
493.57	5.9883E-03
493.77	5.9050E-03
493.97	6.5408E-03
494.17	6.0624E-03
494.38	6.2694E-03
494.58	5.9594E-03
494.78	5.9453E-03
494.98	5.9364E-03
495.18	6.2195E-03
495.38	6.1551E-03
495.58	6.3537E-03
495.78	6.3805E-03
495.98	6.5413E-03
496.18	6.4363E-03
496.38	6.1154E-03
496.58	5.7066E-03
496.78	6.4767E-03
496.99	5.9798E-03
497.19	6.3320E-03
497.39	6.5486E-03
497.59	6.2571E-03
497.79	5.8452E-03
497.99	6.3005E-03
498.19	6.3296E-03
498.39	6.4261E-03
498.59	5.9917E-03
498.79	5.9387E-03
498.99	5.9653E-03
499.19	6.2130E-03
499.39	6.2558E-03
499.59	5.8922E-03
499.79	5.9242E-03
499.99	5.8989E-03
500.19	6.2680E-03
500.40	5.9852E-03
500.60	6.1878E-03
500.80	6.2205E-03
501.00	6.0131E-03
501.20	5.9373E-03
501.40	6.3900E-03
501.60	6.0509E-03
501.80	6.0527E-03
502.00	6.2889E-03
502.20	6.0854E-03
502.40	6.0907E-03
502.60	5.7214E-03
502.80	6.5607E-03
503.00	6.3280E-03
503.20	6.0537E-03
503.40	5.9052E-03
503.60	6.1298E-03
503.80	6.5220E-03
504.00	6.2589E-03
504.20	6.6003E-03
504.40	6.5185E-03
504.60	6.7895E-03
504.80	6.7732E-03
505.00	6.6548E-03
505.20	6.9712E-03
505.40	6.7474E-03
505.60	6.6150E-03
505.80	6.8316E-03
506.00	6.8396E-03
506.20	6.7621E-03
506.40	6.7840E-03
506.60	6.7990E-03
506.80	6.5304E-03
507.00	6.8957E-03
507.20	7.0426E-03
507.40	7.2894E-03
507.60	6.9058E-03
507.80	7.0961E-03
508.00	7.1689E-03
508.20	7.5577E-03
508.40	7.2849E-03
508.60	6.9503E-03
508.80	6.7141E-03
509.00	7.7112E-03
509.20	7.3682E-03
509.40	7.1680E-03
509.60	7.3852E-03
509.80	7.1639E-03
510.00	7.7637E-03
510.20	7.6250E-03
510.40	7.7720E-03
510.60	7.4244E-03
510.80	7.3076E-03
511.00	7.2788E-03
511.20	8.0064E-03
511.40	7.4867E-03
511.60	7.5889E-03
511.80	7.6888E-03
512.00	7.6956E-03
512.20	7.9336E-03
512.40	7.6312E-03
512.60	7.7824E-03
512.80	7.8025E-03
513.00	8.1562E-03
513.20	7.9945E-03
513.40	7.6952E-03
513.59	7.5241E-03
513.79	7.9527E-03
513.99	7.7964E-03
514.19	7.9434E-03
514.39	7.7335E-03
514.59	8.1041E-03
514.79	7.7426E-03
514.99	7.6601E-03
515.19	7.9012E-03
515.39	7.9946E-03
515.59	8.0566E-03
515.79	7.3751E-03
515.99	8.2059E-03
516.19	8.0679E-03
516.39	7.8559E-03
516.59	8.0004E-03
516.79	8.4037E-03
516.98	7.6897E-03
517.18	8.2773E-03
517.38	8.1711E-03
517.58	8.2300E-03
517.78	8.1674E-03
517.98	8.2486E-03
518.18	8.3637E-03
518.38	9.0609E-03
518.58	8.4818E-03
518.78	8.4264E-03
518.98	8.4418E-03
519.18	8.7353E-03
519.38	9.0612E-03
519.57	8.9409E-03
519.77	8.6057E-03
519.97	9.0945E-03
520.17	8.9551E-03
520.37	8.9538E-03
520.57	9.2888E-03
520.77	9.3949E-03
520.97	9.3064E-03
521.17	9.1999E-03
521.37	9.6187E-03
521.57	9.8719E-03
521.76	9.3894E-03
521.96	9.8152E-03
522.16	9.6257E-03
522.36	1.0220E-02
522.56	9.3961E-03
522.76	9.7460E-03
522.96	1.0192E-02
523.16	9.8760E-03
523.36	1.0208E-02
523.55	9.7354E-03
523.75	9.8309E-03
523.95	9.8453E-03
524.15	9.5123E-03
524.35	9.7797E-03
524.55	9.8704E-03
524.75	1.0098E-02
524.95	1.0207E-02
525.14	9.9375E-03
525.34	9.7478E-03
525.54	9.3865E-03
525.74	9.7359E-03
525.94	9.8517E-03
526.14	1.0233E-02
526.34	1.0116E-02
526.54	1.0476E-02
526.73	9.7567E-03
526.93	1.0380E-02
527.13	1.0468E-02
527.33	1.0525E-02
527.53	1.0791E-02
527.73	1.0374E-02
527.93	1.0720E-02
528.12	1.0081E-02
528.32	1.0380E-02
528.52	1.0926E-02
528.72	1.1091E-02
528.92	1.0771E-02
529.12	1.0747E-02
529.32	1.0900E-02
529.51	1.1123E-02
529.71	1.1125E-02
529.91	1.1074E-02
530.11	1.1366E-02
530.31	1.1848E-02
530.51	1.1183E-02
530.70	1.1114E-02
530.90	1.1523E-02
531.10	1.1238E-02
531.30	1.1471E-02
531.50	1.1393E-02
531.70	1.1545E-02
531.89	1.1106E-02
532.09	1.1269E-02
532.29	1.1174E-02
532.49	1.1776E-02
532.69	1.1520E-02
532.88	1.1378E-02
533.08	1.0971E-02
533.28	1.1317E-02
533.48	1.1851E-02
533.68	1.1489E-02
533.88	1.2146E-02
534.07	1.1995E-02
534.27	1.1895E-02
534.47	1.2142E-02
534.67	1.1314E-02
534.87	1.1981E-02
535.06	1.1942E-02
535.26	1.1649E-02
535.46	1.1460E-02
535.66	1.2488E-02
535.86	1.1643E-02
536.05	1.1573E-02
536.25	1.1811E-02
536.45	1.1988E-02
536.65	1.1903E-02
536.85	1.1670E-02
537.04	1.2064E-02
537.24	1.2620E-02
537.44	1.1483E-02
537.64	1.1218E-02
537.83	1.2152E-02
538.03	1.2270E-02
538.23	1.2674E-02
538.43	1.2511E-02
538.63	1.1933E-02
538.82	1.2270E-02
539.02	1.2335E-02
539.22	1.2663E-02
539.42	1.2169E-02
539.61	1.2616E-02
539.81	1.2743E-02
540.01	1.2230E-02
540.21	1.2560E-02
540.41	1.2302E-02
540.60	1.2457E-02
540.80	1.2398E-02
541.00	1.2384E-02
541.20	1.2839E-02
541.39	1.2663E-02
541.59	1.2536E-02
541.79	1.2653E-02
541.99	1.3130E-02
542.18	1.2758E-02
542.38	1.2624E-02
542.58	1.2573E-02
542.78	1.2812E-02
542.97	1.2157E-02
543.17	1.2759E-02
543.37	1.2295E-02
543.57	1.3019E-02
543.76	1.3537E-02
543.96	1.3215E-02
544.16	1.2684E-02
544.36	1.3015E-02
544.55	1.3763E-02
544.75	1.3276E-02
544.95	1.3657E-02
545.14	1.2547E-02
545.34	1.3672E-02
545.54	1.3099E-02
545.74	1.3313E-02
545.93	1.3736E-02
546.13	1.3553E-02
546.33	1.3111E-02
546.53	1.2978E-02
546.72	1.3859E-02
546.92	1.3840E-02
547.12	1.3371E-02
547.31	1.3743E-02
547.51	1.3502E-02
547.71	1.4066E-02
547.91	1.4009E-02
548.10	1.3128E-02
548.30	1.3502E-02
548.50	1.4224E-02
548.69	1.3904E-02
548.89	1.3689E-02
549.09	1.3720E-02
549.29	1.3430E-02
549.48	1.4656E-02
549.68	1.3278E-02
549.88	1.4071E-02
550.07	1.4288E-02
550.27	1.4098E-02
550.47	1.1501E-02
550.66	1.4794E-02
550.86	1.3382E-02
551.06	1.4706E-02
551.25	1.3774E-02
551.45	1.4648E-02
551.65	1.4697E-02
551.85	1.5108E-02
552.04	1.3489E-02
552.24	1.4318E-02
552.44	1.3803E-02
552.63	1.3854E-02
552.83	1.4456E-02
553.03	1.3679E-02
553.22	1.4996E-02
553.42	1.4167E-02
553.62	1.5201E-02
553.81	1.4149E-02
554.01	1.4728E-02
554.21	1.3951E-02
554.40	1.4530E-02
554.60	1.4321E-02
554.80	1.4725E-02
554.99	1.4680E-02
555.19	1.4611E-02
555.39	1.4831E-02
555.58	1.4252E-02
555.78	1.4464E-02
555.98	1.4266E-02
556.17	1.4288E-02
556.37	1.4538E-02
556.56	1.4628E-02
556.76	1.4564E-02
556.96	1.4049E-02
557.15	1.4410E-02
557.35	1.4138E-02
557.55	1.4120E-02
557.74	1.4053E-02
557.94	1.4581E-02
558.14	1.4892E-02
558.33	1.4036E-02
558.53	1.3956E-02
558.73	1.4399E-02
558.92	1.3799E-02
559.12	1.4880E-02
559.31	1.4916E-02
559.51	1.5286E-02
559.71	1.4573E-02
559.90	1.4973E-02
560.10	1.4932E-02
560.30	1.4826E-02
560.49	1.4447E-02
560.69	1.4976E-02
560.88	1.5415E-02
561.08	1.4247E-02
561.28	1.4406E-02
561.47	1.5006E-02
561.67	1.5063E-02
561.86	1.4536E-02
562.06	1.4841E-02
562.26	1.5229E-02
562.45	1.4802E-02
562.65	1.5155E-02
562.84	1.4226E-02
563.04	1.4633E-02
563.24	1.4549E-02
563.43	1.5390E-02
563.63	1.5391E-02
563.82	1.4928E-02
564.02	1.5409E-02
564.22	1.5641E-02
564.41	1.4713E-02
564.61	1.5245E-02
564.80	1.5337E-02
565.00	1.4829E-02
565.20	1.5636E-02
565.39	1.4657E-02
565.59	1.4258E-02
565.78	1.4978E-02
565.98	1.4255E-02
566.18	1.5455E-02
566.37	1.5016E-02
566.57	1.4691E-02
566.76	1.4422E-02
566.96	1.5333E-02
567.15	1.4544E-02
567.35	1.5661E-02
567.55	1.4936E-02
567.74	1.5043E-02
567.94	1.4533E-02
568.13	1.5114E-02
568.33	1.5671E-02
568.52	1.5524E-02
568.72	1.4989E-02
568.91	1.4710E-02
569.11	1.4845E-02
569.31	1.5643E-02
569.50	1.4584E-02
569.70	1.5205E-02
569.89	1.4944E-02
570.09	1.4698E-02
570.28	1.4494E-02
570.48	1.4798E-02
570.67	1.5495E-02
570.87	1.4366E-02
571.07	1.4391E-02
571.26	1.5185E-02
571.46	1.4936E-02
571.65	1.5247E-02
571.85	1.5518E-02
572.04	1.5097E-02
572.24	1.5904E-02
572.43	1.5025E-02
572.63	1.5670E-02
572.82	1.5105E-02
573.02	1.5791E-02
573.21	1.5251E-02
573.41	1.5696E-02
573.60	1.6259E-02
573.80	1.5981E-02
573.99	1.5620E-02
574.19	1.6422E-02
574.38	1.5854E-02
574.58	1.6115E-02
574.78	1.5379E-02
574.97	1.6255E-02
575.17	1.6003E-02
575.36	1.5576E-02
575.56	1.5243E-02
575.75	1.6397E-02
575.95	1.5720E-02
576.14	1.5369E-02
576.34	1.6274E-02
576.53	1.5516E-02
576.73	1.5800E-02
576.92	1.5166E-02
577.12	1.6482E-02
577.31	1.4697E-02
577.51	1.6439E-02
577.70	1.5828E-02
577.90	1.5786E-02
578.09	1.6206E-02
578.29	1.5642E-02
578.48	1.6517E-02
578.68	1.5953E-02
578.87	1.7088E-02
579.06	1.5798E-02
579.26	1.6341E-02
579.45	1.5854E-02
579.65	1.7179E-02
579.84	1.6297E-02
580.04	1.6856E-02
580.23	1.7191E-02
580.43	1.5797E-02
580.62	1.6600E-02
580.82	1.6662E-02
581.01	1.6293E-02
581.21	1.6234E-02
581.40	1.6059E-02
581.60	1.6954E-02
581.79	1.7122E-02
581.99	1.6284E-02
582.18	1.6287E-02
582.37	1.6715E-02
582.57	1.6726E-02
582.76	1.7120E-02
582.96	1.7204E-02
583.15	1.6992E-02
583.35	1.6976E-02
583.54	1.7073E-02
583.74	1.6922E-02
583.93	1.6379E-02
584.12	1.5973E-02
584.32	1.7252E-02
584.51	1.6775E-02
584.71	1.5989E-02
584.90	1.6250E-02
585.10	1.6403E-02
585.29	1.6607E-02
585.49	1.6776E-02
585.68	1.7149E-02
585.87	1.6879E-02
586.07	1.6708E-02
586.26	1.6566E-02
586.46	1.6665E-02
586.65	1.6441E-02
586.85	1.6903E-02
587.04	1.5736E-02
587.23	1.7126E-02
587.43	1.6830E-02
587.62	1.5484E-02
587.82	1.6788E-02
588.01	1.6067E-02
588.20	1.6342E-02
588.40	1.5700E-02
588.59	1.6367E-02
588.79	1.6591E-02
588.98	1.7026E-02
589.18	1.6473E-02
589.37	1.6984E-02
589.56	1.5998E-02
589.76	1.5705E-02
589.95	1.7080E-02
590.15	1.6589E-02
590.34	1.5991E-02
590.53	1.7160E-02
590.73	1.6432E-02
590.92	1.6464E-02
591.11	1.7097E-02
591.31	1.7027E-02
591.50	1.7435E-02
591.70	1.7026E-02
591.89	1.7861E-02
592.08	1.6708E-02
592.28	1.6355E-02
592.47	1.7591E-02
592.67	1.7379E-02
592.86	1.7336E-02
593.05	1.6358E-02
593.25	1.7350E-02
593.44	1.6901E-02
593.63	1.7764E-02
593.83	1.6799E-02
594.02	1.7866E-02
594.22	1.7755E-02
594.41	1.8280E-02
594.60	1.7428E-02
594.80	1.7532E-02
594.99	1.7565E-02
595.18	1.7505E-02
595.38	1.7286E-02
595.57	1.7583E-02
595.76	1.7834E-02
595.96	1.7567E-02
596.15	1.6746E-02
596.34	1.8766E-02
596.54	1.8539E-02
596.73	1.8010E-02
596.93	1.8473E-02
597.12	1.7943E-02
597.31	1.8632E-02
597.51	1.8109E-02
597.70	1.8266E-02
597.89	1.7984E-02
598.09	1.7737E-02
598.28	1.9353E-02
598.47	1.7924E-02
598.67	1.8178E-02
598.86	1.7602E-02
599.05	1.8894E-02
599.25	1.8408E-02
599.44	1.8804E-02
599.63	1.9303E-02
599.83	1.8394E-02
600.02	1.8505E-02
600.21	1.8619E-02
600.41	1.8920E-02
600.60	1.7969E-02
600.79	1.8676E-02
600.98	1.8725E-02
601.18	1.9599E-02
601.37	1.8202E-02
601.56	1.8477E-02
601.76	2.0285E-02
601.95	1.8693E-02
602.14	1.9124E-02
602.34	1.9123E-02
602.53	1.9936E-02
602.72	1.8892E-02
602.92	1.9636E-02
603.11	1.9209E-02
603.30	1.9670E-02
603.49	1.9038E-02
603.69	2.0326E-02
603.88	1.9512E-02
604.07	2.0091E-02
604.27	1.9469E-02
604.46	1.8712E-02
604.65	1.9520E-02
604.84	1.9405E-02
605.04	1.9867E-02
605.23	1.9583E-02
605.42	1.9585E-02
605.62	1.9920E-02
605.81	1.9195E-02
606.00	1.9432E-02
606.19	1.9977E-02
606.39	2.0004E-02
606.58	1.9297E-02
606.77	1.9511E-02
606.97	1.8948E-02
607.16	1.9889E-02
607.35	2.0293E-02
607.54	1.9681E-02
607.74	2.0526E-02
607.93	2.0710E-02
608.12	1.9696E-02
608.31	2.0103E-02
608.51	2.0369E-02
608.70	1.9843E-02
608.89	1.9717E-02
609.08	1.9210E-02
609.28	2.0027E-02
609.47	2.0175E-02
609.66	2.0379E-02
609.85	2.0591E-02
610.05	2.0703E-02
610.24	1.9825E-02
610.43	2.0301E-02
610.62	2.0007E-02
610.82	1.9797E-02
611.01	2.0324E-02
611.20	1.9980E-02
611.39	2.0064E-02
611.59	1.9975E-02
611.78	2.0449E-02
611.97	2.0184E-02
612.16	2.1089E-02
612.35	1.9989E-02
612.55	2.0096E-02
612.74	2.0700E-02
612.93	2.0488E-02
613.12	1.9478E-02
613.32	2.0198E-02
613.51	2.0486E-02
613.70	2.0371E-02
613.89	2.0400E-02
614.08	2.0522E-02
614.28	2.0311E-02
614.47	1.9823E-02
614.66	2.0136E-02
614.85	2.0710E-02
615.04	2.0628E-02
615.24	2.1483E-02
615.43	2.0579E-02
615.62	2.0231E-02
615.81	2.0324E-02
616.00	1.9258E-02
616.20	2.0237E-02
616.39	2.0304E-02
616.58	2.0357E-02
616.77	2.0426E-02
616.96	2.1810E-02
617.16	2.1710E-02
617.35	2.1339E-02
617.54	2.0663E-02
617.73	2.0435E-02
617.92	2.0498E-02
618.12	2.1684E-02
618.31	2.1274E-02
618.50	2.1557E-02
618.69	2.1117E-02
618.88	2.2552E-02
619.07	2.1823E-02
619.27	2.2171E-02
619.46	2.2294E-02
619.65	2.3082E-02
619.84	2.1928E-02
620.03	2.1706E-02
620.22	2.2879E-02
620.42	2.0968E-02
620.61	2.3049E-02
620.80	2.2750E-02
620.99	2.2474E-02
621.18	2.3499E-02
621.37	2.2209E-02
621.57	2.1186E-02
621.76	2.2712E-02
621.95	2.2545E-02
622.14	2.1671E-02
622.33	2.1238E-02
622.52	2.1908E-02
622.71	2.2625E-02
622.91	2.2918E-02
623.10	2.2590E-02
623.29	2.2252E-02
623.48	2.1856E-02
623.67	2.2731E-02
623.86	2.2722E-02
624.05	2.2639E-02
624.25	2.1902E-02
624.44	2.2964E-02
624.63	2.3675E-02
624.82	2.2944E-02
625.01	2.2533E-02
625.20	2.3464E-02
625.39	2.1964E-02
625.58	2.3146E-02
625.78	2.3557E-02
625.97	2.1834E-02
626.16	2.2656E-02
626.35	2.2551E-02
626.54	2.3618E-02
626.73	2.3605E-02
626.92	2.2990E-02
627.11	2.2912E-02
627.31	2.2898E-02
627.50	2.2773E-02
627.69	2.3460E-02
627.88	2.3848E-02
628.07	2.1517E-02
628.26	2.2915E-02
628.45	2.2517E-02
628.64	2.2871E-02
628.83	2.2751E-02
629.02	2.1243E-02
629.22	2.4173E-02
629.41	2.2605E-02
629.60	2.1518E-02
629.79	2.3614E-02
629.98	2.2482E-02
630.17	2.3158E-02
630.36	2.2897E-02
630.55	2.2930E-02
630.74	2.3285E-02
630.93	2.3956E-02
631.12	2.2359E-02
631.31	2.2477E-02
631.51	2.3714E-02
631.70	2.3495E-02
631.89	2.2462E-02
632.08	2.2737E-02
632.27	2.3172E-02
632.46	2.2878E-02
632.65	2.3039E-02
632.84	2.2096E-02
633.03	2.4129E-02
633.22	2.3151E-02
633.41	2.4135E-02
633.60	2.4078E-02
633.79	2.3290E-02
633.98	2.2225E-02
634.17	2.3531E-02
634.37	2.3534E-02
634.56	2.4450E-02
634.75	2.2688E-02
634.94	2.4190E-02
635.13	2.3414E-02
635.32	2.4387E-02
635.51	2.4166E-02
635.70	2.2894E-02
635.89	2.5286E-02
636.08	2.3750E-02
636.27	2.2981E-02
636.46	2.4433E-02
636.65	2.3567E-02
636.84	2.2815E-02
637.03	2.4322E-02
637.22	2.4297E-02
637.41	2.3882E-02
637.60	2.4460E-02
637.79	2.4638E-02
637.98	2.4258E-02
638.17	2.4388E-02
638.36	2.3554E-02
638.55	2.2733E-02
638.74	2.2995E-02
638.93	2.3465E-02
639.12	2.3283E-02
639.31	2.3541E-02
639.50	2.3255E-02
639.69	2.2986E-02
639.88	2.4203E-02
640.07	2.3198E-02
640.26	2.4470E-02
640.45	2.3915E-02
640.64	2.4364E-02
640.83	2.4243E-02
641.02	2.5031E-02
641.21	2.3862E-02
641.40	2.2347E-02
641.59	2.4100E-02
641.78	2.4575E-02
641.97	2.4261E-02
642.16	2.4740E-02
642.35	2.4452E-02
642.54	2.4572E-02
642.73	2.4024E-02
642.92	2.1913E-02
643.11	2.4555E-02
643.30	2.4904E-02
643.49	2.3663E-02
643.68	2.4219E-02
643.87	2.2987E-02
644.06	2.4184E-02
644.25	2.3292E-02
644.44	2.3649E-02
644.63	2.3476E-02
644.82	2.3560E-02
645.01	2.4305E-02
645.20	2.4223E-02
645.39	2.3536E-02
645.58	2.3280E-02
645.77	2.3273E-02
645.96	2.4517E-02
646.15	2.3651E-02
646.34	2.3977E-02
646.53	2.3674E-02
646.72	2.4035E-02
646.91	2.2915E-02
647.10	2.5193E-02
647.29	2.3557E-02
647.47	2.4476E-02
647.66	2.3527E-02
647.85	2.3108E-02
648.04	2.3159E-02
648.23	2.3228E-02
648.42	2.5468E-02
648.61	2.2508E-02
648.80	2.3793E-02
648.99	2.4471E-02
649.18	2.2812E-02
649.37	2.4237E-02
649.56	2.3662E-02
649.75	2.3318E-02
649.94	2.4544E-02
650.13	2.4247E-02
650.31	2.4453E-02
650.50	2.3752E-02
650.69	2.4513E-02
650.88	2.3789E-02
651.07	2.3930E-02
651.26	2.4445E-02
651.45	2.5490E-02
651.64	2.4595E-02
651.83	2.3559E-02
652.02	2.4429E-02
652.21	2.3888E-02
652.40	2.3925E-02
652.58	2.6048E-02
652.77	2.3740E-02
652.96	2.3352E-02
653.15	2.4673E-02
653.34	2.4443E-02
653.53	2.4484E-02
653.72	2.4291E-02
653.91	2.2953E-02
654.10	2.3516E-02
654.29	2.2705E-02
654.47	2.4742E-02
654.66	2.2118E-02
654.85	2.2787E-02
655.04	2.2025E-02
655.23	2.3203E-02
655.42	2.1784E-02
655.61	2.3062E-02
655.80	2.2665E-02
655.98	2.3506E-02
656.17	2.3147E-02
656.36	2.3655E-02
656.55	2.2747E-02
656.74	2.4481E-02
656.93	2.4212E-02
657.12	2.4507E-02
657.31	2.3361E-02
657.49	2.5730E-02
657.68	2.4998E-02
657.87	2.3053E-02
658.06	2.5888E-02
658.25	2.4308E-02
658.44	2.5451E-02
658.63	2.4569E-02
658.81	2.4080E-02
659.00	2.5131E-02
659.19	2.4504E-02
659.38	2.6441E-02
659.57	2.6347E-02
659.76	2.5075E-02
659.95	2.6871E-02
660.13	2.4370E-02
660.32	2.5979E-02
660.51	2.5417E-02
660.70	2.6407E-02
660.89	2.5433E-02
661.08	2.5835E-02
661.26	2.4996E-02
661.45	2.6125E-02
661.64	2.5366E-02
661.83	2.5268E-02
662.02	2.5624E-02
662.21	2.6485E-02
662.39	2.7013E-02
662.58	2.5937E-02
662.77	2.7844E-02
662.96	2.6860E-02
663.15	2.5693E-02
663.33	2.7524E-02
663.52	2.6213E-02
663.71	2.6258E-02
663.90	2.6370E-02
664.09	2.5172E-02
664.28	2.6050E-02
664.46	2.5286E-02
664.65	2.5506E-02
664.84	2.4702E-02
665.03	2.5842E-02
665.22	2.6407E-02
665.40	2.6300E-02
665.59	2.5560E-02
665.78	2.5497E-02
665.97	2.5430E-02
666.16	2.6152E-02
666.34	2.6899E-02
666.53	2.5304E-02
666.72	2.6837E-02
666.91	2.5969E-02
667.09	2.6093E-02
667.28	2.6998E-02
667.47	2.6859E-02
667.66	2.6316E-02
667.85	2.6247E-02
668.03	2.2632E-02
668.22	2.7144E-02
668.41	2.6344E-02
668.60	2.4175E-02
668.78	2.7117E-02
668.97	2.6090E-02
669.16	2.5215E-02
669.35	2.7013E-02
669.54	2.5185E-02
669.72	2.7171E-02
669.91	2.6184E-02
670.10	2.6782E-02
670.29	2.6668E-02
670.47	2.7414E-02
670.66	2.7992E-02
670.85	2.6942E-02
671.04	2.5648E-02
671.22	2.5540E-02
671.41	2.6721E-02
671.60	2.6848E-02
671.79	2.6932E-02
671.97	2.6219E-02
672.16	2.8204E-02
672.35	2.7567E-02
672.54	2.7551E-02
672.72	2.6586E-02
672.91	2.5838E-02
673.10	2.6572E-02
673.28	2.6114E-02
673.47	2.6277E-02
673.66	2.6466E-02
673.85	2.8269E-02
674.03	2.7304E-02
674.22	2.7163E-02
674.41	2.6301E-02
674.60	2.6454E-02
674.78	2.4872E-02
674.97	2.5798E-02
675.16	2.9053E-02
675.34	2.7680E-02
675.53	2.6662E-02
675.72	2.6020E-02
675.91	2.8834E-02
676.09	2.7425E-02
676.28	2.8335E-02
676.47	2.7866E-02
676.65	2.6186E-02
676.84	2.7631E-02
677.03	2.8509E-02
677.22	2.7031E-02
677.40	2.8277E-02
677.59	2.7583E-02
677.78	2.7030E-02
677.96	2.7506E-02
678.15	2.8348E-02
678.34	2.9488E-02
678.52	2.6963E-02
678.71	2.7572E-02
678.90	2.7716E-02
679.08	2.8261E-02
679.27	2.6998E-02
679.46	2.9406E-02
679.64	2.8260E-02
679.83	2.7680E-02
680.02	2.7913E-02
680.21	2.5706E-02
680.39	2.8882E-02
680.58	2.7830E-02
680.77	2.7331E-02
680.95	2.7671E-02
681.14	2.5896E-02
681.33	2.7524E-02
681.51	2.8534E-02
681.70	2.8081E-02
681.89	2.8729E-02
682.07	2.7685E-02
682.26	2.5686E-02
682.44	2.8246E-02
682.63	2.7949E-02
682.82	2.8607E-02
683.00	2.5317E-02
683.19	2.7400E-02
683.38	2.7969E-02
683.56	2.8345E-02
683.75	2.7594E-02
683.94	2.5892E-02
684.12	2.5851E-02
684.31	2.7787E-02
684.50	2.8161E-02
684.68	2.6552E-02
684.87	2.6432E-02
685.05	2.6979E-02
685.24	2.5212E-02
685.43	2.6407E-02
685.61	2.6196E-02
685.80	2.4824E-02
685.99	2.6337E-02
686.17	2.4544E-02
686.36	2.6679E-02
686.54	2.6538E-02
686.73	2.5823E-02
686.92	2.5964E-02
687.10	2.5180E-02
687.29	2.6588E-02
687.48	2.4867E-02
687.66	2.7420E-02
687.85	2.5434E-02
688.03	2.6114E-02
688.22	2.4474E-02
688.41	2.6477E-02
688.59	2.4302E-02
688.78	2.6559E-02
688.96	2.6964E-02
689.15	2.7975E-02
689.34	2.4070E-02
689.52	2.8410E-02
689.71	2.6811E-02
689.89	2.7736E-02
690.08	2.9127E-02
690.27	2.7520E-02
690.45	2.6949E-02
690.64	2.6740E-02
690.82	2.5883E-02
691.01	2.7592E-02
691.19	2.6841E-02
691.38	2.7651E-02
691.57	2.8263E-02
691.75	2.6436E-02
691.94	2.8412E-02
692.12	2.6999E-02
692.31	2.8473E-02
692.50	2.7371E-02
692.68	2.8285E-02
692.87	2.9239E-02
693.05	2.8290E-02
693.24	2.6448E-02
693.42	2.7326E-02
693.61	2.8278E-02
693.79	2.9157E-02
693.98	2.7358E-02
694.17	2.8444E-02
694.35	2.9839E-02
694.54	2.9932E-02
694.72	2.8949E-02
694.91	2.8967E-02
695.09	2.9050E-02
695.28	2.9100E-02
695.46	2.9610E-02
695.65	2.9870E-02
695.83	3.0171E-02
696.02	3.1244E-02
696.21	3.1516E-02
696.39	2.9937E-02
696.58	3.0859E-02
696.76	2.7551E-02
696.95	2.9322E-02
697.13	2.9752E-02
697.32	3.0405E-02
697.50	3.0121E-02
697.69	3.0522E-02
697.87	3.1164E-02
698.06	3.1090E-02
698.24	2.9376E-02
698.43	2.9895E-02
698.61	3.2009E-02
698.80	3.0494E-02
698.98	3.1735E-02
699.17	2.8232E-02
699.35	3.0768E-02
699.54	2.9929E-02
699.72	2.7860E-02
699.91	3.1101E-02
700.09	3.0762E-02
700.28	3.0989E-02
700.46	3.1076E-02
700.65	3.0423E-02
700.83	3.1289E-02
701.02	3.1971E-02
701.20	2.8402E-02
701.39	3.2623E-02
701.57	3.1103E-02
701.76	2.9540E-02
701.94	3.0898E-02
702.13	3.1386E-02
702.31	2.8341E-02
702.50	3.4558E-02
702.68	3.3064E-02
702.87	3.3912E-02
703.05	3.3873E-02
703.24	3.2967E-02
703.42	2.9135E-02
703.61	3.3903E-02
703.79	3.4626E-02
703.98	3.1907E-02
704.16	3.3221E-02
704.35	3.2436E-02
704.53	3.3559E-02
704.72	3.3698E-02
704.90	3.4242E-02
705.08	3.2266E-02
705.27	3.5456E-02
705.45	3.5146E-02
705.64	3.5990E-02
705.82	3.5343E-02
706.01	3.5228E-02
706.19	3.4078E-02
706.38	3.4735E-02
706.56	3.6921E-02
706.75	3.6364E-02
706.93	3.5769E-02
707.11	3.3689E-02
707.30	3.6517E-02
707.48	3.6122E-02
707.67	3.4306E-02
707.85	3.5187E-02
708.04	3.6170E-02
708.22	3.5821E-02
708.40	3.4404E-02
708.59	3.3493E-02
708.77	3.6637E-02
708.96	3.5533E-02
709.14	3.6364E-02
709.33	3.5380E-02
709.51	3.6538E-02
709.69	3.6504E-02
709.88	3.7234E-02
710.06	3.6879E-02
710.25	3.5376E-02
710.43	3.6783E-02
710.62	3.7885E-02
710.80	3.6482E-02
710.98	3.7288E-02
711.17	3.6718E-02
711.35	3.7558E-02
711.54	3.8173E-02
711.72	3.6340E-02
711.90	3.8243E-02
712.09	3.8170E-02
712.27	3.5849E-02
712.46	3.7654E-02
712.64	3.5859E-02
712.82	3.8625E-02
713.01	3.8620E-02
713.19	3.8500E-02
713.37	3.7103E-02
713.56	3.6548E-02
713.74	3.8363E-02
713.93	3.6834E-02
714.11	3.5941E-02
714.29	3.4212E-02
714.48	3.7211E-02
714.66	3.7207E-02
714.85	3.5537E-02
715.03	3.5849E-02
715.21	3.5246E-02
715.40	3.3785E-02
715.58	3.3959E-02
715.76	3.2443E-02
715.95	3.3275E-02
716.13	3.5446E-02
716.31	3.4271E-02
716.50	3.3561E-02
716.68	3.2288E-02
716.87	3.3836E-02
717.05	3.3574E-02
717.23	3.1588E-02
717.42	3.3028E-02
717.60	3.1984E-02
717.78	3.2684E-02
717.97	3.2470E-02
718.15	3.1659E-02
718.33	3.1002E-02
718.52	3.2316E-02
718.70	3.3188E-02
718.88	3.1194E-02
719.07	3.5060E-02
719.25	3.2306E-02
719.43	3.3443E-02
719.62	3.2754E-02
719.80	3.2958E-02
719.98	3.5268E-02
720.17	3.4057E-02
720.35	3.4098E-02
720.53	3.5917E-02
720.72	3.6700E-02
720.90	3.5393E-02
721.08	3.4329E-02
721.27	3.5300E-02
721.45	3.5336E-02
721.63	3.4980E-02
721.82	3.6367E-02
722.00	3.4853E-02
722.18	3.4914E-02
722.36	3.6897E-02
722.55	3.5914E-02
722.73	3.6072E-02
722.91	3.5891E-02
723.10	3.7350E-02
723.28	3.5911E-02
723.46	3.2658E-02
723.65	3.4942E-02
723.83	3.5001E-02
724.01	3.4426E-02
724.19	3.5848E-02
724.38	3.5833E-02
724.56	3.6544E-02
724.74	3.7227E-02
724.93	3.4000E-02
725.11	3.4546E-02
725.29	3.6866E-02
725.47	3.6749E-02
725.66	3.6624E-02
725.84	3.6127E-02
726.02	3.6511E-02
726.21	3.8333E-02
726.39	3.6546E-02
726.57	3.7094E-02
726.75	3.6288E-02
726.94	3.8519E-02
727.12	3.6755E-02
727.30	3.6428E-02
727.48	3.5495E-02
727.67	3.7652E-02
727.85	3.6232E-02
728.03	3.7170E-02
728.21	3.8642E-02
728.40	3.6143E-02
728.58	3.8955E-02
728.76	3.7256E-02
728.94	3.8240E-02
729.13	3.9059E-02
729.31	3.6533E-02
729.49	3.8189E-02
729.67	3.7933E-02
729.86	3.8566E-02
730.04	3.6391E-02
730.22	3.9228E-02
730.40	3.8905E-02
730.59	3.9381E-02
730.77	3.9822E-02
730.95	4.1617E-02
731.13	4.0635E-02
731.31	4.1152E-02
731.50	3.9000E-02
731.68	4.2954E-02
731.86	4.1273E-02
732.04	4.2462E-02
732.23	4.4335E-02
732.41	4.3056E-02
732.59	4.3704E-02
732.77	4.3980E-02
732.95	4.4389E-02
733.14	4.3326E-02
733.32	4.6166E-02
733.50	4.5009E-02
733.68	4.4859E-02
733.86	4.4762E-02
734.05	4.6088E-02
734.23	4.6546E-02
734.41	4.3038E-02
734.59	4.4866E-02
734.77	4.5533E-02
734.96	4.2561E-02
735.14	4.6650E-02
735.32	4.5871E-02
735.50	4.5747E-02
735.68	4.8073E-02
735.87	4.6389E-02
736.05	4.9164E-02
736.23	4.4220E-02
736.41	4.8256E-02
736.59	4.7452E-02
736.77	4.6343E-02
736.96	4.6057E-02
737.14	4.4252E-02
737.32	4.7757E-02
737.50	4.8545E-02
737.68	4.7785E-02
737.87	4.8589E-02
738.05	5.0225E-02
738.23	4.6023E-02
738.41	4.7712E-02
738.59	4.8390E-02
738.77	4.9220E-02
738.95	5.0973E-02
739.14	4.7777E-02
739.32	4.8201E-02
739.50	5.1594E-02
739.68	4.8111E-02
739.86	4.9431E-02
740.04	4.8866E-02
740.23	4.6903E-02
740.41	5.0258E-02
740.59	5.0782E-02
740.77	5.1871E-02
740.95	5.0462E-02
741.13	4.9573E-02
741.31	4.8907E-02
741.50	4.9427E-02
741.68	4.8700E-02
741.86	4.8321E-02
742.04	5.0895E-02
742.22	5.1703E-02
742.40	5.0683E-02
742.58	5.1504E-02
742.76	5.1918E-02
742.95	4.8129E-02
743.13	5.2690E-02
743.31	5.1667E-02
743.49	5.0899E-02
743.67	5.3184E-02
743.85	5.2471E-02
744.03	5.0846E-02
744.21	5.1933E-02
744.39	4.9758E-02
744.58	5.2827E-02
744.76	5.2551E-02
744.94	5.4220E-02
745.12	5.2607E-02
745.30	5.1224E-02
745.48	5.3502E-02
745.66	5.4284E-02
745.84	5.0991E-02
746.02	5.1196E-02
746.20	5.2543E-02
746.38	5.3640E-02
746.57	5.5697E-02
746.75	5.0095E-02
746.93	5.3500E-02
747.11	5.0865E-02
747.29	5.2524E-02
747.47	5.4300E-02
747.65	5.3556E-02
747.83	5.0146E-02
748.01	5.2928E-02
748.19	5.3491E-02
748.37	5.2999E-02
748.55	5.2866E-02
748.73	5.1642E-02
748.92	5.3314E-02
749.10	5.1556E-02
749.28	5.4057E-02
749.46	5.1880E-02
749.64	5.1056E-02
749.82	5.2133E-02
750.00	5.3926E-02
750.18	5.2951E-02
750.36	5.0376E-02
750.54	5.3269E-02
750.72	5.4914E-02
750.90	5.4688E-02
751.08	5.3254E-02
751.26	5.4942E-02
751.44	5.4836E-02
751.62	5.6259E-02
751.80	5.4094E-02
751.98	5.4925E-02
752.16	5.5699E-02
752.34	5.6022E-02
752.52	5.6777E-02
752.71	5.2779E-02
752.89	5.2006E-02
753.07	5.6180E-02
753.25	5.1895E-02
753.43	5.6310E-02
753.61	5.3076E-02
753.79	5.6546E-02
753.97	5.5595E-02
754.15	5.6064E-02
754.33	5.6760E-02
754.51	5.6594E-02
754.69	5.6855E-02
754.87	5.5276E-02
755.05	5.5534E-02
755.23	5.7587E-02
755.41	5.8944E-02
755.59	4.8527E-02
755.77	5.5340E-02
755.95	5.4826E-02
756.13	5.1504E-02
756.31	5.5783E-02
756.49	5.6030E-02
756.67	5.3986E-02
756.85	5.3711E-02
757.03	5.2679E-02
757.21	5.2719E-02
757.39	5.3086E-02
757.57	5.3375E-02
757.75	4.9295E-02
757.93	4.5760E-02
758.11	4.6870E-02
758.29	4.6153E-02
758.47	4.3851E-02
758.65	4.4268E-02
758.83	4.7141E-02
759.01	4.4594E-02
759.18	4.2569E-02
759.36	3.7722E-02
759.54	4.0774E-02
759.72	3.7830E-02
759.90	3.9840E-02
760.08	3.9594E-02
760.26	3.9776E-02
760.44	3.6898E-02
760.62	3.4403E-02
760.80	3.4653E-02
760.98	3.9414E-02
761.16	3.9286E-02
761.34	3.7351E-02
761.52	4.1039E-02
761.70	3.7113E-02
761.88	3.7882E-02
762.06	3.8412E-02
762.24	3.7940E-02
762.42	3.8518E-02
762.60	3.8728E-02
762.78	3.9911E-02
762.95	3.8965E-02
763.13	4.1139E-02
763.31	4.2186E-02
763.49	4.0703E-02
763.67	4.1860E-02
763.85	3.9190E-02
764.03	4.4513E-02
764.21	4.1757E-02
764.39	4.4605E-02
764.57	4.7574E-02
764.75	4.6649E-02
764.93	5.1496E-02
765.11	4.7620E-02
765.28	5.1491E-02
765.46	5.1239E-02
765.64	5.0729E-02
765.82	5.3057E-02
766.00	5.4557E-02
766.18	5.5306E-02
766.36	5.5387E-02
766.54	5.5257E-02
766.72	5.6597E-02
766.90	6.1125E-02
767.07	5.5733E-02
767.25	5.8687E-02
767.43	5.9757E-02
767.61	6.2132E-02
767.79	6.2054E-02
767.97	6.1355E-02
768.15	5.9932E-02
768.33	5.8473E-02
768.51	6.1671E-02
768.68	6.1827E-02
768.86	5.9850E-02
769.04	6.0627E-02
769.22	6.5301E-02
769.40	6.4397E-02
769.58	6.1662E-02
769.76	6.6466E-02
769.94	6.5716E-02
770.11	6.2237E-02
770.29	6.3957E-02
770.47	6.3358E-02
770.65	6.3801E-02
770.83	6.3543E-02
771.01	6.5613E-02
771.19	6.5215E-02
771.36	6.2425E-02
771.54	6.5574E-02
771.72	6.3703E-02
771.90	6.1230E-02
772.08	6.4608E-02
772.26	6.6658E-02
772.44	6.1381E-02
772.61	6.4544E-02
772.79	6.0889E-02
772.97	6.5076E-02
773.15	6.7370E-02
773.33	6.2448E-02
773.51	6.5711E-02
773.68	6.2593E-02
773.86	6.1626E-02
774.04	6.3572E-02
774.22	6.1237E-02
774.40	6.3104E-02
774.58	6.4724E-02
774.75	6.4196E-02
774.93	6.0341E-02
775.11	6.5529E-02
775.29	6.2563E-02
775.47	6.0244E-02
775.64	6.4983E-02
775.82	6.2816E-02
776.00	6.3953E-02
776.18	6.1418E-02
776.36	6.1890E-02
776.53	6.6820E-02
776.71	6.2288E-02
776.89	6.1790E-02
777.07	6.4038E-02
777.25	6.3810E-02
777.42	6.3908E-02
777.60	6.1734E-02
777.78	6.4540E-02
777.96	6.2922E-02
778.14	6.5621E-02
778.31	6.3565E-02
778.49	5.9252E-02
778.67	6.0660E-02
778.85	6.2295E-02
779.03	6.4174E-02
779.20	6.3632E-02
779.38	6.2412E-02
779.56	5.9836E-02
779.74	6.4043E-02
779.91	6.1645E-02
780.09	6.0971E-02
780.27	5.8599E-02
780.45	6.0441E-02
780.62	6.2215E-02
780.80	6.3308E-02
780.98	5.8614E-02
781.16	5.6535E-02
781.34	6.1399E-02
781.51	6.2121E-02
781.69	6.2691E-02
781.87	6.1654E-02
782.05	6.0618E-02
782.22	6.1319E-02
782.40	5.9785E-02
782.58	6.1191E-02
782.76	5.8540E-02
782.93	6.2267E-02
783.11	6.4608E-02
783.29	6.0308E-02
783.47	6.0645E-02
783.64	6.1782E-02
783.82	5.9761E-02
784.00	5.6798E-02
784.17	5.9584E-02
784.35	6.0328E-02
784.53	5.9072E-02
784.71	6.1363E-02
784.88	5.9285E-02
785.06	6.3414E-02
785.24	5.9814E-02
785.42	6.2244E-02
785.59	6.0863E-02
785.77	5.6143E-02
785.95	5.8643E-02
786.12	5.6518E-02
786.30	5.9144E-02
786.48	5.8481E-02
786.65	5.7222E-02
786.83	5.8053E-02
787.01	5.8616E-02
787.19	5.7387E-02
787.36	5.8617E-02
787.54	5.7577E-02
787.72	5.8835E-02
787.89	5.8284E-02
788.07	5.7654E-02
788.25	5.6984E-02
788.42	5.5990E-02
788.60	5.9391E-02
788.78	5.6505E-02
788.96	5.7215E-02
789.13	5.4891E-02
789.31	5.5646E-02
789.49	5.5888E-02
789.66	5.8285E-02
789.84	5.5156E-02
790.02	5.1860E-02
790.19	5.4917E-02
790.37	5.6654E-02
790.55	5.5511E-02
790.72	5.5678E-02
790.90	5.9183E-02
791.08	5.4612E-02
791.25	5.5224E-02
791.43	5.5860E-02
791.61	5.4557E-02
791.78	5.4731E-02
791.96	5.1465E-02
792.14	5.4851E-02
792.31	5.6905E-02
792.49	5.1416E-02
792.67	5.8050E-02
792.84	5.3669E-02
793.02	5.4177E-02
793.19	5.2988E-02
793.37	5.6467E-02
793.55	5.6665E-02
793.72	5.5568E-02
793.90	5.1875E-02
794.08	5.4514E-02
794.25	5.5247E-02
794.43	5.3116E-02
794.61	5.5120E-02
794.78	5.5081E-02
794.96	5.1798E-02
795.13	5.5067E-02
795.31	5.5742E-02
795.49	5.1559E-02
795.66	5.4381E-02
795.84	5.3065E-02
796.01	5.3834E-02
796.19	5.1963E-02
796.37	5.4911E-02
796.54	5.3731E-02
796.72	5.5169E-02
796.90	5.3561E-02
797.07	5.1237E-02
797.25	5.3886E-02
797.42	5.6312E-02
797.60	5.5677E-02
797.78	5.4138E-02
797.95	5.1698E-02
798.13	5.0313E-02
798.30	5.3884E-02
798.48	5.3251E-02
798.66	5.6066E-02
798.83	5.0810E-02
799.01	5.3973E-02
799.18	5.2049E-02
799.36	5.5824E-02
799.53	4.9104E-02
799.71	5.4899E-02
799.89	5.1906E-02
800.06	5.2316E-02
800.24	5.2662E-02
800.41	4.8622E-02
800.59	5.4346E-02
800.76	4.9675E-02
800.94	5.0090E-02
801.12	5.3119E-02
801.29	5.2469E-02
801.47	5.3778E-02
801.64	4.9741E-02
801.82	5.3625E-02
801.99	5.3457E-02
802.17	5.3331E-02
802.34	5.2347E-02
802.52	5.2411E-02
802.70	5.4130E-02
802.87	5.0581E-02
803.05	4.9283E-02
803.22	5.5508E-02
803.40	5.1893E-02
803.57	5.2176E-02
803.75	5.5939E-02
803.92	5.3511E-02
804.10	4.9789E-02
804.27	5.0651E-02
804.45	5.2932E-02
804.63	5.1717E-02
804.80	5.0287E-02
804.98	5.3307E-02
805.15	4.8937E-02
805.33	5.5917E-02
805.50	5.6442E-02
805.68	5.5219E-02
805.85	5.6891E-02
806.03	5.4131E-02
806.20	5.4619E-02
806.38	4.7586E-02
806.55	4.9407E-02
806.73	5.6086E-02
806.90	5.2370E-02
807.08	5.1306E-02
807.25	4.8205E-02
807.43	5.2345E-02
807.60	5.4264E-02
807.78	4.9866E-02
807.95	4.6314E-02
808.13	4.8378E-02
808.30	4.7408E-02
808.48	5.1938E-02
808.65	5.0013E-02
808.83	5.4226E-02
809.00	5.0220E-02
809.18	5.4129E-02
809.35	4.7981E-02
809.53	5.2589E-02
809.70	5.0415E-02
809.88	5.1198E-02
810.05	5.0513E-02
810.23	5.2660E-02
810.40	5.1137E-02
810.57	5.1107E-02
810.75	4.8111E-02
810.92	4.7880E-02
811.10	4.8388E-02
811.27	4.5314E-02
811.45	4.7632E-02
811.62	4.6535E-02
811.80	4.4738E-02
811.97	4.8122E-02
812.15	4.8505E-02
812.32	4.8605E-02
812.50	4.2980E-02
812.67	5.2670E-02
812.84	4.4903E-02
813.02	4.8260E-02
813.19	4.7858E-02
813.37	4.8362E-02
813.54	4.4914E-02
813.72	4.6587E-02
813.89	4.3573E-02
814.07	4.6694E-02
814.24	4.7460E-02
814.41	4.8305E-02
814.59	4.3718E-02
814.76	4.3285E-02
814.94	4.6352E-02
815.11	4.7871E-02
815.29	3.9284E-02
815.46	4.1306E-02
815.63	4.3156E-02
815.81	4.3806E-02
815.98	3.7585E-02
816.16	3.8447E-02
816.33	4.4116E-02
816.50	4.6439E-02
816.68	4.4095E-02
816.85	4.1975E-02
817.03	4.4969E-02
817.20	4.3444E-02
817.37	4.5964E-02
817.55	4.2972E-02
817.72	4.4574E-02
817.90	4.0190E-02
818.07	4.3973E-02
818.24	3.9324E-02
818.42	4.1334E-02
818.59	4.1003E-02
818.77	4.1093E-02
818.94	4.5025E-02
819.11	3.9744E-02
819.29	4.5596E-02
819.46	4.4527E-02
819.64	3.8775E-02
819.81	4.7388E-02
819.98	4.6020E-02
820.16	4.1366E-02
820.33	4.4912E-02
820.50	4.3982E-02
820.68	4.0484E-02
820.85	4.3808E-02
821.02	4.2583E-02
821.20	3.9608E-02
821.37	4.3252E-02
821.55	3.7807E-02
821.72	4.1572E-02
821.89	4.2380E-02
822.07	4.5697E-02
822.24	4.5075E-02
822.41	3.7873E-02
822.59	4.7690E-02
822.76	4.7452E-02
822.93	4.1783E-02
823.11	4.3579E-02
823.28	4.5693E-02
823.45	4.2786E-02
823.63	4.3236E-02
823.80	4.6837E-02
823.97	3.8040E-02
824.15	4.7358E-02
824.32	4.3456E-02
824.49	5.0385E-02
824.67	4.4194E-02
824.84	4.6737E-02
825.01	4.6496E-02
825.19	4.6586E-02
825.36	4.6376E-02
825.53	4.9302E-02
825.71	4.7929E-02
825.88	4.9171E-02
826.05	4.4220E-02
826.23	4.8169E-02
826.40	4.5642E-02
826.57	4.6275E-02
826.75	4.4527E-02
826.92	4.1837E-02
827.09	4.1607E-02
827.26	5.0167E-02
827.44	4.5766E-02
827.61	4.9714E-02
827.78	4.6788E-02
827.96	4.0392E-02
828.13	4.9695E-02
828.30	4.6681E-02
828.48	4.5156E-02
828.65	4.4308E-02
828.82	4.4897E-02
828.99	4.5150E-02
829.17	4.6272E-02
829.34	3.8884E-02
829.51	4.4829E-02
829.68	4.9343E-02
829.86	4.8151E-02
830.03	4.5167E-02
830.20	4.7114E-02
830.38	4.5623E-02
830.55	4.2129E-02
830.72	4.7149E-02
830.89	4.1803E-02
831.07	4.1818E-02
831.24	4.1992E-02
831.41	4.3861E-02
831.58	4.7658E-02
831.76	5.0949E-02
831.93	4.7794E-02
832.10	4.7388E-02
832.27	4.1049E-02
832.45	4.1184E-02
832.62	4.6589E-02
832.79	4.3364E-02
832.96	4.7244E-02
833.14	4.0863E-02
833.31	4.9683E-02
833.48	4.6055E-02
833.65	4.2983E-02
833.83	4.9561E-02
834.00	5.0721E-02
834.17	4.5850E-02
834.34	4.8626E-02
834.51	4.5728E-02
834.69	4.3481E-02
834.86	4.9667E-02
835.03	4.5461E-02
835.20	4.9344E-02
835.38	4.5901E-02
835.55	4.6991E-02
835.72	4.4923E-02
835.89	5.4123E-02
836.06	4.5192E-02
836.24	4.5004E-02
836.41	4.2375E-02
836.58	4.9687E-02
836.75	4.8827E-02
836.92	4.7300E-02
837.10	4.3472E-02
837.27	4.6147E-02
837.44	4.3657E-02
837.61	5.1199E-02
837.78	4.4689E-02
837.96	4.8150E-02
838.13	4.5974E-02
838.30	4.9863E-02
838.47	4.7948E-02
838.64	4.6445E-02
838.82	4.5666E-02
838.99	5.2803E-02
839.16	4.5355E-02
839.33	4.6659E-02
839.50	5.2718E-02
839.67	4.9095E-02
839.85	4.2340E-02
840.02	4.8462E-02
840.19	4.5559E-02
840.36	5.2097E-02
840.53	4.4423E-02
840.70	4.3646E-02
840.88	5.0824E-02
841.05	5.2700E-02
841.22	4.8842E-02
841.39	4.8923E-02
841.56	4.9773E-02
841.73	4.8278E-02
841.91	5.1398E-02
842.08	5.0992E-02
842.25	4.9952E-02
842.42	5.1527E-02
842.59	4.9384E-02
842.76	5.6018E-02
842.93	4.9455E-02
843.11	5.0827E-02
843.28	4.9032E-02
843.45	4.9420E-02
843.62	4.4590E-02
843.79	4.6213E-02
843.96	5.3038E-02
844.13	4.9311E-02
844.30	4.8650E-02
844.48	5.2704E-02
844.65	4.4692E-02
844.82	4.1814E-02
844.99	4.6718E-02
845.16	4.6129E-02
845.33	4.7519E-02
845.50	4.7271E-02
845.67	4.2580E-02
845.84	4.7240E-02
846.02	4.4677E-02
846.19	4.7438E-02
846.36	4.7221E-02
846.53	5.3248E-02
846.70	4.8673E-02
846.87	4.1642E-02
847.04	4.9112E-02
847.21	4.8997E-02
847.38	4.9049E-02
847.55	4.9014E-02
847.73	4.4627E-02
847.90	4.7096E-02
848.07	4.2825E-02
848.24	4.4419E-02
848.41	4.2733E-02
848.58	5.6152E-02
848.75	4.6225E-02
848.92	5.3639E-02
849.09	4.7827E-02
849.26	4.5549E-02
849.43	4.3071E-02
849.60	4.6277E-02
849.77	5.0390E-02
849.94	3.5028E-02
850.12	5.1687E-02
850.29	4.8204E-02
850.46	4.5997E-02
850.63	4.4238E-02
850.80	4.7606E-02
850.97	4.7249E-02
851.14	4.1649E-02
851.31	3.7444E-02
851.48	4.3293E-02
851.65	4.5446E-02
851.82	5.0270E-02
851.99	4.8405E-02
852.16	3.7814E-02
852.33	4.5903E-02
852.50	4.3190E-02
852.67	4.4853E-02
852.84	4.6868E-02
853.01	4.4046E-02
853.18	4.7741E-02
853.35	4.1751E-02
853.52	5.2263E-02
853.69	4.4861E-02
853.86	4.0371E-02
854.03	4.0058E-02
854.21	4.7853E-02
854.38	4.5913E-02
854.55	4.9129E-02
854.72	5.0194E-02
854.89	4.2124E-02
855.06	3.7141E-02
855.23	4.5762E-02
855.40	5.1601E-02
855.57	4.1581E-02
855.74	4.4601E-02
855.91	4.6820E-02
856.08	4.1877E-02
856.25	4.6774E-02
856.42	4.5151E-02
856.59	4.4975E-02
856.76	4.6931E-02
856.93	4.6495E-02
857.10	4.6069E-02
857.27	5.3293E-02
857.44	4.8292E-02
857.61	4.8217E-02
857.77	4.3020E-02
857.94	4.3469E-02
858.11	4.2580E-02
858.28	5.2055E-02
858.45	4.2656E-02
858.62	4.8108E-02
858.79	4.4951E-02
858.96	4.5233E-02
859.13	4.5838E-02
859.30	4.9482E-02
859.47	4.3710E-02
859.64	3.7822E-02
859.81	4.9183E-02
859.98	4.9611E-02
860.15	4.5459E-02
860.32	4.2814E-02
860.49	5.5589E-02
860.66	4.7306E-02
860.83	4.8873E-02
861.00	4.7304E-02
861.17	4.8341E-02
861.34	4.9388E-02
861.51	3.8548E-02
861.68	5.0156E-02
861.84	4.7618E-02
862.01	4.2550E-02
862.18	4.4362E-02
862.35	4.7970E-02
862.52	4.7983E-02
862.69	4.4904E-02
862.86	4.7793E-02
863.03	4.9978E-02
863.20	4.7482E-02
863.37	4.8696E-02
863.54	4.2516E-02
863.71	4.2563E-02
863.88	4.5861E-02
864.05	4.5320E-02
864.21	4.9258E-02
864.38	4.1765E-02
864.55	4.0175E-02
864.72	5.1752E-02
864.89	4.5232E-02
865.06	5.0455E-02
865.23	4.4380E-02
865.40	4.0514E-02
865.57	5.1213E-02
865.74	4.7247E-02
865.90	4.8169E-02
866.07	4.7515E-02
866.24	4.0010E-02
866.41	3.8458E-02
866.58	4.1201E-02
866.75	4.2461E-02
866.92	4.3675E-02
867.09	4.4209E-02
867.26	4.5155E-02
867.42	4.0005E-02
867.59	3.6616E-02
867.76	4.6817E-02
867.93	4.2166E-02
868.10	4.4412E-02
868.27	3.4718E-02
868.44	4.5041E-02
868.60	4.7374E-02
868.77	4.6097E-02
868.94	4.3537E-02
869.11	4.2772E-02
869.28	4.7996E-02
869.45	3.6653E-02
869.62	4.6558E-02
869.78	4.3426E-02
869.95	3.8175E-02
870.12	4.1207E-02
870.29	4.4853E-02
870.46	4.5670E-02
870.63	4.0239E-02
870.80	3.5200E-02
870.96	3.9821E-02
871.13	3.8427E-02
871.30	4.4245E-02
871.47	4.4807E-02
871.64	4.4711E-02
871.81	3.1385E-02
871.97	4.8660E-02
872.14	3.5768E-02
872.31	3.3637E-02
872.48	3.8584E-02
872.65	4.5408E-02
872.81	4.0286E-02
872.98	4.8032E-02
873.15	4.4853E-02
873.32	4.4939E-02
873.49	4.0822E-02
873.66	4.5849E-02
873.82	4.2850E-02
873.99	3.9447E-02
874.16	4.4901E-02
874.33	4.1513E-02
874.50	4.6624E-02
874.66	4.2476E-02
874.83	4.4219E-02
875.00	4.3219E-02
875.17	3.4045E-02
875.34	4.6719E-02
875.50	4.0657E-02
875.67	3.9347E-02
875.84	4.1446E-02
876.01	3.9027E-02
876.17	3.6540E-02
876.34	3.6432E-02
876.51	4.8175E-02
876.68	4.5660E-02
876.85	4.3719E-02
877.01	4.6328E-02
877.18	3.9082E-02
877.35	4.1336E-02
877.52	4.0784E-02
877.68	4.4255E-02
877.85	3.9200E-02
878.02	4.1708E-02
878.19	3.9636E-02
878.35	4.1913E-02
878.52	4.1156E-02
878.69	4.2978E-02
878.86	3.6362E-02
879.02	4.0091E-02
879.19	3.4711E-02
879.36	3.8262E-02
879.53	3.0823E-02
879.69	3.7287E-02
879.86	4.4792E-02
880.03	4.3419E-02
880.20	3.7307E-02
880.36	4.5640E-02
880.53	3.6519E-02
880.70	4.6845E-02
880.87	3.9712E-02
881.03	4.0249E-02
881.20	3.2371E-02
881.37	3.9554E-02
881.54	4.2003E-02
881.70	4.6473E-02
881.87	3.8730E-02
882.04	3.9297E-02
882.20	3.9896E-02
882.37	3.3711E-02
882.54	4.2893E-02
882.71	4.1595E-02
882.87	4.6958E-02
883.04	3.9769E-02
883.21	3.9924E-02
883.37	3.7599E-02
883.54	4.0627E-02
883.71	3.8048E-02
883.87	3.4617E-02
884.04	4.5480E-02
884.21	3.8200E-02
884.38	3.5733E-02
884.54	4.6889E-02
884.71	4.6937E-02
884.88	3.8886E-02
885.04	4.1799E-02
885.21	3.7099E-02
885.38	3.6848E-02
885.54	4.9068E-02
885.71	3.7750E-02
885.88	4.1766E-02
886.04	3.9919E-02
886.21	4.0897E-02
886.38	3.7487E-02
886.54	3.8410E-02
886.71	3.4147E-02
886.88	4.4447E-02
887.04	3.0867E-02
887.21	3.5973E-02
887.38	4.1486E-02
887.54	3.6561E-02
887.71	3.7387E-02
887.88	3.7929E-02
888.04	4.3629E-02
888.21	3.5954E-02
888.38	3.4845E-02
888.54	3.6649E-02
888.71	3.2423E-02
888.87	3.0915E-02
889.04	3.0915E-02
>>>>>End Processed Spectral Data<<<<<
