SpectraSuite Data File
++++++++++++++++++++++++++++++++++++
Date: Wed Jul 25 10:47:36 HST 2007
User: guest
Dark Spectrum Present: Yes
Reference Spectrum Present: No
Number of Sampled Component Spectra: 1
Spectrometers: USB4E01242
Integration Time (usec): 100000 (USB4E01242)
Spectra Averaged: 1 (USB4E01242)
Boxcar Smoothing: 10 (USB4E01242)
Correct for Electrical Dark: No (USB4E01242)
Strobe/Lamp Enabled: No (USB4E01242)
Correct for Detector Non-linearity: No (USB4E01242)
Correct for Stray Light: No (USB4E01242)
Number of Pixels in Processed Spectrum: 3648
>>>>>Begin Processed Spectral Data<<<<<
177.33	0.0000E00
177.55	0.0000E00
177.77	0.0000E00
177.99	0.0000E00
178.21	0.0000E00
178.43	-0.0000E00
178.64	-0.0000E00
178.86	-0.0000E00
179.08	-0.0000E00
179.30	-0.0000E00
179.52	-0.0000E00
179.74	-0.0000E00
179.96	-0.0000E00
180.18	-0.0000E00
180.39	-0.0000E00
180.61	-0.0000E00
180.83	-0.0000E00
181.05	-0.0000E00
181.27	-0.0000E00
181.49	-0.0000E00
181.71	0.0000E00
181.92	-0.0000E00
182.14	0.0000E00
182.36	-0.0000E00
182.58	-0.0000E00
182.80	0.0000E00
183.02	0.0000E00
183.23	-0.0000E00
183.45	-0.0000E00
183.67	-0.0000E00
183.89	-0.0000E00
184.11	0.0000E00
184.33	-0.0000E00
184.55	-0.0000E00
184.76	0.0000E00
184.98	-0.0000E00
185.20	-0.0000E00
185.42	-0.0000E00
185.64	-0.0000E00
185.86	0.0000E00
186.07	-0.0000E00
186.29	-0.0000E00
186.51	-0.0000E00
186.73	-0.0000E00
186.95	-0.0000E00
187.17	0.0000E00
187.38	-0.0000E00
187.60	0.0000E00
187.82	-0.0000E00
188.04	-0.0000E00
188.26	-0.0000E00
188.47	-0.0000E00
188.69	-0.0000E00
188.91	0.0000E00
189.13	-0.0000E00
189.35	-0.0000E00
189.57	0.0000E00
189.78	0.0000E00
190.00	-0.0000E00
190.22	-0.0000E00
190.44	0.0000E00
190.66	-0.0000E00
190.87	0.0000E00
191.09	-0.0000E00
191.31	-0.0000E00
191.53	-0.0000E00
191.75	-0.0000E00
191.97	-0.0000E00
192.18	0.0000E00
192.40	0.0000E00
192.62	0.0000E00
192.84	0.0000E00
193.06	-0.0000E00
193.27	-0.0000E00
193.49	0.0000E00
193.71	0.0000E00
193.93	-0.0000E00
194.15	-0.0000E00
194.36	0.0000E00
194.58	0.0000E00
194.80	0.0000E00
195.02	-0.0000E00
195.23	-0.0000E00
195.45	-0.0000E00
195.67	-0.0000E00
195.89	-0.0000E00
196.11	0.0000E00
196.32	-0.0000E00
196.54	-0.0000E00
196.76	-0.0000E00
196.98	0.0000E00
197.20	0.0000E00
197.41	-0.0000E00
197.63	-0.0000E00
197.85	-0.0000E00
198.07	-0.0000E00
198.28	-0.0000E00
198.50	-0.0000E00
198.72	-0.0000E00
198.94	0.0000E00
199.16	-0.0000E00
199.37	-0.0000E00
199.59	0.0000E00
199.81	-0.0000E00
200.03	0.0000E00
200.24	0.0000E00
200.46	-0.0000E00
200.68	-0.0000E00
200.90	-0.0000E00
201.11	-0.0000E00
201.33	-0.0000E00
201.55	-0.0000E00
201.77	0.0000E00
201.98	-0.0000E00
202.20	0.0000E00
202.42	0.0000E00
202.64	-0.0000E00
202.86	-0.0000E00
203.07	-0.0000E00
203.29	-0.0000E00
203.51	-0.0000E00
203.73	0.0000E00
203.94	-0.0000E00
204.16	-0.0000E00
204.38	0.0000E00
204.60	-0.0000E00
204.81	0.0000E00
205.03	-0.0000E00
205.25	-0.0000E00
205.46	0.0000E00
205.68	-0.0000E00
205.90	-0.0000E00
206.12	-0.0000E00
206.33	-0.0000E00
206.55	0.0000E00
206.77	-0.0000E00
206.99	-0.0000E00
207.20	-0.0000E00
207.42	0.0000E00
207.64	-0.0000E00
207.86	-0.0000E00
208.07	-0.0000E00
208.29	-0.0000E00
208.51	-0.0000E00
208.72	-0.0000E00
208.94	0.0000E00
209.16	0.0000E00
209.38	-0.0000E00
209.59	0.0000E00
209.81	-0.0000E00
210.03	-0.0000E00
210.25	-0.0000E00
210.46	-0.0000E00
210.68	-0.0000E00
210.90	-0.0000E00
211.11	-0.0000E00
211.33	-0.0000E00
211.55	-0.0000E00
211.77	-0.0000E00
211.98	0.0000E00
212.20	-0.0000E00
212.42	-0.0000E00
212.63	-0.0000E00
212.85	0.0000E00
213.07	-0.0000E00
213.29	0.0000E00
213.50	-0.0000E00
213.72	-0.0000E00
213.94	-0.0000E00
214.15	-0.0000E00
214.37	-0.0000E00
214.59	-0.0000E00
214.80	-0.0000E00
215.02	0.0000E00
215.24	-0.0000E00
215.45	-0.0000E00
215.67	-0.0000E00
215.89	0.0000E00
216.11	-0.0000E00
216.32	-0.0000E00
216.54	-0.0000E00
216.76	-0.0000E00
216.97	0.0000E00
217.19	0.0000E00
217.41	-0.0000E00
217.62	0.0000E00
217.84	0.0000E00
218.06	-0.0000E00
218.27	-0.0000E00
218.49	0.0000E00
218.71	0.0000E00
218.92	0.0000E00
219.14	-0.0000E00
219.36	-0.0000E00
219.57	-0.0000E00
219.79	0.0000E00
220.01	-0.0000E00
220.22	0.0000E00
220.44	-0.0000E00
220.66	-0.0000E00
220.88	0.0000E00
221.09	0.0000E00
221.31	-0.0000E00
221.53	-0.0000E00
221.74	0.0000E00
221.96	-0.0000E00
222.17	-0.0000E00
222.39	-0.0000E00
222.61	-0.0000E00
222.82	0.0000E00
223.04	0.0000E00
223.26	0.0000E00
223.47	-0.0000E00
223.69	-0.0000E00
223.91	-0.0000E00
224.12	0.0000E00
224.34	-0.0000E00
224.56	-0.0000E00
224.77	-0.0000E00
224.99	-0.0000E00
225.21	0.0000E00
225.42	0.0000E00
225.64	0.0000E00
225.86	-0.0000E00
226.07	0.0000E00
226.29	-0.0000E00
226.50	0.0000E00
226.72	-0.0000E00
226.94	-0.0000E00
227.15	-0.0000E00
227.37	0.0000E00
227.59	-0.0000E00
227.80	-0.0000E00
228.02	-0.0000E00
228.24	-0.0000E00
228.45	-0.0000E00
228.67	-0.0000E00
228.88	0.0000E00
229.10	-0.0000E00
229.32	-0.0000E00
229.53	0.0000E00
229.75	-0.0000E00
229.97	0.0000E00
230.18	0.0000E00
230.40	-0.0000E00
230.61	-0.0000E00
230.83	-0.0000E00
231.05	-0.0000E00
231.26	0.0000E00
231.48	-0.0000E00
231.70	-0.0000E00
231.91	-0.0000E00
232.13	-0.0000E00
232.34	-0.0000E00
232.56	0.0000E00
232.78	-0.0000E00
232.99	0.0000E00
233.21	-0.0000E00
233.42	-0.0000E00
233.64	-0.0000E00
233.86	-0.0000E00
234.07	-0.0000E00
234.29	0.0000E00
234.50	-0.0000E00
234.72	-0.0000E00
234.94	-0.0000E00
235.15	0.0000E00
235.37	-0.0000E00
235.58	0.0000E00
235.80	-0.0000E00
236.02	0.0000E00
236.23	0.0000E00
236.45	-0.0000E00
236.66	-0.0000E00
236.88	0.0000E00
237.10	0.0000E00
237.31	-0.0000E00
237.53	0.0000E00
237.74	0.0000E00
237.96	-0.0000E00
238.17	-0.0000E00
238.39	0.0000E00
238.61	-0.0000E00
238.82	-0.0000E00
239.04	-0.0000E00
239.25	-0.0000E00
239.47	-0.0000E00
239.69	-0.0000E00
239.90	-0.0000E00
240.12	0.0000E00
240.33	0.0000E00
240.55	-0.0000E00
240.76	0.0000E00
240.98	-0.0000E00
241.20	-0.0000E00
241.41	-0.0000E00
241.63	-0.0000E00
241.84	-0.0000E00
242.06	-0.0000E00
242.27	-0.0000E00
242.49	-0.0000E00
242.70	-0.0000E00
242.92	0.0000E00
243.14	0.0000E00
243.35	-0.0000E00
243.57	0.0000E00
243.78	-0.0000E00
244.00	0.0000E00
244.21	-0.0000E00
244.43	0.0000E00
244.64	-0.0000E00
244.86	-0.0000E00
245.08	-0.0000E00
245.29	0.0000E00
245.51	-0.0000E00
245.72	-0.0000E00
245.94	0.0000E00
246.15	-0.0000E00
246.37	-0.0000E00
246.58	-0.0000E00
246.80	-0.0000E00
247.01	0.0000E00
247.23	-0.0000E00
247.45	0.0000E00
247.66	0.0000E00
247.88	0.0000E00
248.09	-0.0000E00
248.31	-0.0000E00
248.52	-0.0000E00
248.74	-0.0000E00
248.95	0.0000E00
249.17	-0.0000E00
249.38	-0.0000E00
249.60	-0.0000E00
249.81	0.0000E00
250.03	0.0000E00
250.24	-0.0000E00
250.46	0.0000E00
250.67	-0.0000E00
250.89	0.0000E00
251.10	-0.0000E00
251.32	-0.0000E00
251.53	-0.0000E00
251.75	-0.0000E00
251.97	-0.0000E00
252.18	0.0000E00
252.40	-0.0000E00
252.61	0.0000E00
252.83	0.0000E00
253.04	-0.0000E00
253.26	0.0000E00
253.47	-0.0000E00
253.69	0.0000E00
253.90	0.0000E00
254.12	-0.0000E00
254.33	-0.0000E00
254.55	-0.0000E00
254.76	0.0000E00
254.98	0.0000E00
255.19	-0.0000E00
255.41	0.0000E00
255.62	0.0000E00
255.84	-0.0000E00
256.05	-0.0000E00
256.27	0.0000E00
256.48	0.0000E00
256.70	0.0000E00
256.91	-0.0000E00
257.13	-0.0000E00
257.34	-0.0000E00
257.55	0.0000E00
257.77	0.0000E00
257.98	-0.0000E00
258.20	0.0000E00
258.41	0.0000E00
258.63	-0.0000E00
258.84	-0.0000E00
259.06	0.0000E00
259.27	-0.0000E00
259.49	0.0000E00
259.70	0.0000E00
259.92	-0.0000E00
260.13	0.0000E00
260.35	-0.0000E00
260.56	-0.0000E00
260.78	-0.0000E00
260.99	-0.0000E00
261.21	0.0000E00
261.42	-0.0000E00
261.63	-0.0000E00
261.85	-0.0000E00
262.06	-0.0000E00
262.28	0.0000E00
262.49	-0.0000E00
262.71	0.0000E00
262.92	-0.0000E00
263.14	-0.0000E00
263.35	-0.0000E00
263.57	0.0000E00
263.78	0.0000E00
264.00	0.0000E00
264.21	-0.0000E00
264.42	-0.0000E00
264.64	-0.0000E00
264.85	-0.0000E00
265.07	-0.0000E00
265.28	-0.0000E00
265.50	-0.0000E00
265.71	-0.0000E00
265.93	-0.0000E00
266.14	-0.0000E00
266.35	0.0000E00
266.57	-0.0000E00
266.78	0.0000E00
267.00	-0.0000E00
267.21	0.0000E00
267.43	-0.0000E00
267.64	-0.0000E00
267.85	-0.0000E00
268.07	-0.0000E00
268.28	0.0000E00
268.50	-0.0000E00
268.71	0.0000E00
268.93	-0.0000E00
269.14	0.0000E00
269.35	-0.0000E00
269.57	0.0000E00
269.78	-0.0000E00
270.00	-0.0000E00
270.21	0.0000E00
270.43	-0.0000E00
270.64	0.0000E00
270.85	-0.0000E00
271.07	-0.0000E00
271.28	-0.0000E00
271.50	-0.0000E00
271.71	-0.0000E00
271.92	-0.0000E00
272.14	-0.0000E00
272.35	0.0000E00
272.57	-0.0000E00
272.78	-0.0000E00
272.99	0.0000E00
273.21	-0.0000E00
273.42	-0.0000E00
273.64	-0.0000E00
273.85	0.0000E00
274.07	0.0000E00
274.28	-0.0000E00
274.49	0.0000E00
274.71	-0.0000E00
274.92	-0.0000E00
275.13	-0.0000E00
275.35	-0.0000E00
275.56	-0.0000E00
275.78	0.0000E00
275.99	-0.0000E00
276.20	-0.0000E00
276.42	-0.0000E00
276.63	-0.0000E00
276.85	-0.0000E00
277.06	-0.0000E00
277.27	0.0000E00
277.49	0.0000E00
277.70	-0.0000E00
277.92	-0.0000E00
278.13	0.0000E00
278.34	0.0000E00
278.56	0.0000E00
278.77	0.0000E00
278.98	-0.0000E00
279.20	-0.0000E00
279.41	-0.0000E00
279.63	0.0000E00
279.84	-0.0000E00
280.05	-0.0000E00
280.27	-0.0000E00
280.48	0.0000E00
280.69	-0.0000E00
280.91	-0.0000E00
281.12	-0.0000E00
281.33	-0.0000E00
281.55	-0.0000E00
281.76	0.0000E00
281.98	0.0000E00
282.19	-0.0000E00
282.40	0.0000E00
282.62	0.0000E00
282.83	-0.0000E00
283.04	-0.0000E00
283.26	0.0000E00
283.47	0.0000E00
283.68	-0.0000E00
283.90	-0.0000E00
284.11	0.0000E00
284.32	-0.0000E00
284.54	-0.0000E00
284.75	-0.0000E00
284.96	0.0000E00
285.18	-0.0000E00
285.39	-0.0000E00
285.60	-0.0000E00
285.82	-0.0000E00
286.03	-0.0000E00
286.24	-0.0000E00
286.46	0.0000E00
286.67	0.0000E00
286.88	-0.0000E00
287.10	0.0000E00
287.31	-0.0000E00
287.52	0.0000E00
287.74	-0.0000E00
287.95	-0.0000E00
288.16	-0.0000E00
288.38	0.0000E00
288.59	-0.0000E00
288.80	-0.0000E00
289.02	-0.0000E00
289.23	-0.0000E00
289.44	-0.0000E00
289.66	0.0000E00
289.87	-0.0000E00
290.08	0.0000E00
290.30	-0.0000E00
290.51	-0.0000E00
290.72	-0.0000E00
290.94	0.0000E00
291.15	-0.0000E00
291.36	0.0000E00
291.57	0.0000E00
291.79	-0.0000E00
292.00	-0.0000E00
292.21	-0.0000E00
292.43	-0.0000E00
292.64	-0.0000E00
292.85	-0.0000E00
293.07	-0.0000E00
293.28	-0.0000E00
293.49	-0.0000E00
293.70	0.0000E00
293.92	-0.0000E00
294.13	-0.0000E00
294.34	0.0000E00
294.56	-0.0000E00
294.77	0.0000E00
294.98	-0.0000E00
295.20	-0.0000E00
295.41	-0.0000E00
295.62	-0.0000E00
295.83	-0.0000E00
296.05	0.0000E00
296.26	-0.0000E00
296.47	0.0000E00
296.69	-0.0000E00
296.90	-0.0000E00
297.11	-0.0000E00
297.32	-0.0000E00
297.54	-0.0000E00
297.75	-0.0000E00
297.96	-0.0000E00
298.17	-0.0000E00
298.39	0.0000E00
298.60	-0.0000E00
298.81	0.0000E00
299.03	-0.0000E00
299.24	0.0000E00
299.45	-0.0000E00
299.66	0.0000E00
299.88	0.0000E00
300.09	-5.5205E-06
300.30	-9.4278E-05
300.51	6.2765E-05
300.73	-8.9342E-05
300.94	-4.2810E-05
301.15	2.2754E-05
301.36	-1.4730E-04
301.58	-5.6810E-05
301.79	1.6539E-04
302.00	-4.6809E-05
302.21	-7.0156E-05
302.43	7.1066E-05
302.64	-8.6499E-05
302.85	8.0411E-05
303.06	-1.1731E-04
303.28	4.6749E-05
303.49	-9.1643E-05
303.70	1.4528E-04
303.91	-5.4407E-05
304.13	-1.1374E-04
304.34	-1.7945E-05
304.55	1.5103E-04
304.76	-1.6705E-04
304.98	-6.5196E-05
305.19	1.1230E-04
305.40	-1.1435E-04
305.61	5.9146E-05
305.82	-7.2119E-05
306.04	7.8997E-05
306.25	-1.3283E-04
306.46	1.1425E-04
306.67	-8.0890E-05
306.89	-7.0189E-05
307.10	6.5882E-05
307.31	4.4571E-05
307.52	-1.8080E-05
307.74	1.3901E-04
307.95	1.2539E-04
308.16	-1.7805E-04
308.37	1.7919E-05
308.58	-5.1241E-05
308.80	8.5333E-05
309.01	2.7910E-05
309.22	-1.7472E-04
309.43	-9.8416E-05
309.64	4.6277E-05
309.86	1.4048E-04
310.07	-1.6638E-05
310.28	4.2236E-05
310.49	5.8837E-05
310.70	-1.2798E-04
310.92	6.9192E-05
311.13	-2.1939E-05
311.34	-3.6386E-07
311.55	2.0234E-05
311.76	-1.1023E-05
311.98	1.3970E-04
312.19	-3.2001E-05
312.40	-1.1887E-04
312.61	-7.5737E-05
312.82	1.9773E-05
313.04	-1.0859E-04
313.25	3.2481E-05
313.46	-8.8635E-05
313.67	-8.1722E-05
313.88	-4.2665E-05
314.10	-8.5884E-05
314.31	-8.1385E-05
314.52	-7.7997E-05
314.73	-4.5384E-05
314.94	4.4216E-05
315.16	8.7433E-05
315.37	1.5841E-04
315.58	-6.7754E-05
315.79	6.2007E-05
316.00	9.0096E-05
316.21	1.3829E-04
316.43	-7.9181E-05
316.64	-1.1667E-05
316.85	-4.0069E-05
317.06	6.1358E-05
317.27	1.1554E-04
317.48	8.6669E-06
317.70	3.3255E-05
317.91	1.0413E-05
318.12	1.0585E-04
318.33	-2.5654E-05
318.54	2.2551E-06
318.75	3.3691E-05
318.97	1.2218E-04
319.18	3.6700E-05
319.39	-2.7416E-06
319.60	1.0586E-05
319.81	8.2917E-05
320.02	-3.1449E-05
320.24	-3.9546E-05
320.45	1.9309E-05
320.66	-1.3626E-04
320.87	-1.8707E-05
321.08	7.7400E-05
321.29	6.5895E-05
321.50	-3.8471E-05
321.72	-5.8682E-05
321.93	1.0070E-04
322.14	-1.0443E-05
322.35	8.7807E-05
322.56	1.0508E-04
322.77	1.5431E-04
322.98	1.0683E-05
323.20	1.3766E-04
323.41	-6.3385E-05
323.62	-8.0398E-05
323.83	3.0569E-05
324.04	-6.8516E-05
324.25	-6.7307E-05
324.46	4.5383E-06
324.67	2.9400E-05
324.89	-8.4444E-06
325.10	-3.4886E-05
325.31	1.2533E-04
325.52	5.6529E-05
325.73	-6.4507E-05
325.94	-1.3717E-05
326.15	-1.5019E-04
326.36	8.8958E-05
326.58	1.5571E-04
326.79	1.1774E-04
327.00	-1.7579E-04
327.21	8.6076E-05
327.42	6.9800E-05
327.63	6.4513E-05
327.84	2.6335E-05
328.05	1.4414E-04
328.26	-1.6620E-04
328.48	5.0028E-05
328.69	1.3480E-04
328.90	2.5965E-05
329.11	2.9407E-05
329.32	3.5535E-05
329.53	-6.3134E-05
329.74	8.6636E-06
329.95	1.1126E-04
330.16	6.4251E-05
330.37	-1.1060E-05
330.59	2.1297E-04
330.80	1.0597E-04
331.01	1.2279E-04
331.22	1.0699E-04
331.43	-3.5563E-05
331.64	-4.7898E-05
331.85	1.8570E-04
332.06	1.5758E-04
332.27	-4.5345E-05
332.48	1.4018E-04
332.69	1.6322E-04
332.91	1.0917E-04
333.12	8.5366E-05
333.33	3.1721E-04
333.54	-7.0232E-06
333.75	-6.1721E-05
333.96	5.3067E-06
334.17	-2.5484E-05
334.38	3.7227E-06
334.59	1.4745E-04
334.80	1.3046E-04
335.01	1.1080E-04
335.22	4.3856E-05
335.43	2.2327E-05
335.64	6.4853E-05
335.86	1.3629E-04
336.07	1.1785E-04
336.28	-6.8074E-05
336.49	1.7014E-04
336.70	-3.3137E-06
336.91	1.3738E-05
337.12	-3.7098E-05
337.33	1.9226E-04
337.54	4.8032E-05
337.75	-2.8438E-06
337.96	1.5256E-04
338.17	1.3662E-04
338.38	-4.1691E-05
338.59	1.7711E-04
338.80	-5.9970E-05
339.01	2.1481E-04
339.22	1.6918E-04
339.43	1.8162E-04
339.65	7.0866E-05
339.86	-3.0170E-05
340.07	-4.0296E-05
340.28	1.1411E-04
340.49	7.2129E-05
340.70	1.2145E-04
340.91	-3.9886E-05
341.12	-9.9426E-05
341.33	8.2936E-05
341.54	1.5845E-04
341.75	8.2467E-06
341.96	6.5535E-05
342.17	1.4154E-04
342.38	4.4089E-05
342.59	1.0047E-04
342.80	-2.6064E-05
343.01	9.6409E-05
343.22	6.4957E-05
343.43	1.4384E-05
343.64	-3.7026E-05
343.85	1.0622E-04
344.06	-1.2798E-04
344.27	1.1143E-04
344.48	2.8252E-04
344.69	1.2504E-04
344.90	1.7500E-04
345.11	9.9388E-05
345.32	6.8807E-05
345.53	-1.1875E-04
345.74	1.9501E-04
345.95	-3.8745E-05
346.16	1.1348E-04
346.37	1.1298E-04
346.58	1.0890E-04
346.79	-2.1547E-05
347.00	1.9987E-04
347.21	2.2315E-04
347.42	3.1183E-05
347.63	-8.4864E-05
347.84	1.0887E-04
348.05	1.9545E-04
348.26	6.7113E-05
348.47	1.2623E-04
348.68	1.0213E-04
348.89	-1.1623E-04
349.10	4.5053E-05
349.31	1.1036E-04
349.52	-1.1227E-05
349.73	5.4082E-05
349.94	6.9611E-05
350.15	-7.9408E-05
350.36	2.1543E-04
350.57	1.4574E-04
350.78	1.7490E-04
350.99	1.6391E-04
351.20	2.4215E-05
351.41	1.4643E-04
351.62	3.2646E-05
351.83	6.0565E-05
352.04	4.5390E-05
352.25	1.5409E-04
352.46	7.0470E-05
352.67	-1.4792E-05
352.88	2.3634E-04
353.09	-1.8223E-04
353.30	3.2261E-05
353.51	6.9983E-05
353.72	2.3623E-04
353.93	2.7620E-05
354.14	-7.2612E-05
354.35	1.9634E-04
354.56	3.2781E-05
354.77	2.9436E-04
354.98	-1.2328E-04
355.19	3.9433E-05
355.39	7.3229E-05
355.60	2.6467E-05
355.81	1.2918E-04
356.02	1.9679E-04
356.23	-6.4405E-05
356.44	-1.0743E-04
356.65	1.6369E-04
356.86	1.3694E-06
357.07	-2.3124E-05
357.28	1.5952E-04
357.49	6.9876E-05
357.70	1.4646E-04
357.91	-8.3228E-05
358.12	-8.9050E-05
358.33	8.1807E-05
358.54	1.3748E-04
358.75	2.1428E-05
358.96	1.2525E-04
359.16	-1.3788E-04
359.37	1.8999E-04
359.58	7.2188E-05
359.79	1.5376E-06
360.00	1.6965E-05
360.21	3.4457E-05
360.42	-1.2523E-05
360.63	3.3709E-04
360.84	1.9113E-04
361.05	-1.4319E-04
361.26	5.4664E-05
361.47	2.2111E-04
361.68	3.1199E-05
361.88	1.1649E-04
362.09	-9.4146E-06
362.30	1.1513E-04
362.51	3.9453E-05
362.72	2.4196E-04
362.93	6.8579E-05
363.14	1.0769E-04
363.35	4.3011E-05
363.56	-3.7516E-06
363.77	2.0597E-04
363.98	1.3641E-04
364.18	2.6524E-04
364.39	1.9629E-04
364.60	9.0672E-05
364.81	1.3606E-04
365.02	1.5456E-04
365.23	1.8521E-04
365.44	1.7034E-04
365.65	1.2767E-04
365.86	-7.3713E-05
366.07	2.5840E-04
366.27	1.3318E-04
366.48	2.0813E-04
366.69	1.3129E-04
366.90	2.3786E-04
367.11	1.7670E-04
367.32	1.9162E-04
367.53	8.8708E-05
367.74	1.7031E-05
367.95	2.5424E-05
368.15	1.0466E-04
368.36	1.8945E-04
368.57	-5.7388E-05
368.78	2.8596E-04
368.99	8.6780E-05
369.20	5.7932E-05
369.41	2.0944E-04
369.62	1.2490E-04
369.82	3.1239E-04
370.03	1.3058E-04
370.24	2.2338E-04
370.45	1.1986E-04
370.66	2.8835E-05
370.87	4.4586E-05
371.08	9.6880E-05
371.28	1.0611E-04
371.49	1.3390E-04
371.70	1.1987E-04
371.91	1.3934E-04
372.12	4.2228E-05
372.33	6.5210E-05
372.54	1.6213E-04
372.74	1.4802E-04
372.95	-5.5992E-05
373.16	2.1393E-04
373.37	2.4737E-04
373.58	-2.3821E-05
373.79	2.1831E-04
374.00	1.1791E-04
374.20	3.0712E-04
374.41	2.7539E-04
374.62	1.4040E-04
374.83	1.2456E-04
375.04	1.7037E-04
375.25	1.9271E-04
375.45	-1.1554E-04
375.66	2.1335E-04
375.87	1.7000E-04
376.08	2.6744E-04
376.29	2.2554E-04
376.50	1.8429E-04
376.70	1.1550E-04
376.91	2.1898E-04
377.12	2.2967E-04
377.33	9.4082E-06
377.54	6.2057E-05
377.75	2.2961E-04
377.95	1.0541E-04
378.16	1.5934E-04
378.37	4.7315E-05
378.58	2.4098E-04
378.79	-1.7443E-05
379.00	2.7601E-04
379.20	1.0516E-04
379.41	2.0160E-04
379.62	2.5118E-04
379.83	1.5614E-04
380.04	2.0605E-04
380.24	1.4894E-04
380.45	1.8320E-05
380.66	8.5297E-05
380.87	1.7833E-04
381.08	2.1530E-04
381.28	6.0359E-05
381.49	1.9855E-04
381.70	5.8398E-05
381.91	1.1481E-04
382.12	2.0617E-04
382.32	8.5491E-05
382.53	1.9963E-04
382.74	2.7285E-05
382.95	9.5752E-05
383.16	1.5238E-04
383.36	-9.3769E-05
383.57	1.3725E-04
383.78	2.0427E-04
383.99	2.9720E-05
384.20	8.2042E-05
384.40	9.7520E-05
384.61	2.2566E-04
384.82	2.6850E-04
385.03	1.4504E-04
385.23	1.8990E-04
385.44	1.8036E-04
385.65	2.6273E-04
385.86	6.6999E-05
386.07	4.1072E-04
386.27	-1.6489E-05
386.48	1.4087E-04
386.69	2.4010E-04
386.90	-1.3842E-04
387.10	7.5541E-05
387.31	2.2360E-04
387.52	7.2216E-05
387.73	1.5446E-04
387.94	2.4036E-04
388.14	-2.5605E-05
388.35	7.8383E-05
388.56	3.8789E-04
388.77	2.1893E-04
388.97	2.3186E-04
389.18	3.2765E-04
389.39	1.5004E-04
389.60	2.0857E-04
389.80	3.5847E-04
390.01	2.9117E-04
390.22	2.8121E-04
390.43	7.4519E-05
390.63	1.4805E-04
390.84	1.4601E-04
391.05	3.7930E-04
391.26	1.8584E-04
391.46	1.5484E-04
391.67	1.6185E-04
391.88	-1.1381E-05
392.09	-7.9061E-06
392.29	2.3123E-04
392.50	7.2035E-05
392.71	1.7098E-04
392.92	2.1905E-04
393.12	1.9679E-04
393.33	2.9951E-04
393.54	1.3556E-04
393.74	2.7232E-05
393.95	1.0187E-04
394.16	2.7846E-04
394.37	1.3189E-04
394.57	1.2949E-04
394.78	2.4218E-04
394.99	1.5895E-04
395.19	1.1788E-04
395.40	9.9606E-05
395.61	8.8503E-05
395.82	2.4835E-04
396.02	1.0620E-04
396.23	2.2619E-04
396.44	2.5092E-04
396.65	1.2226E-04
396.85	2.8929E-04
397.06	1.8964E-04
397.27	2.4113E-04
397.47	3.2183E-04
397.68	2.0085E-04
397.89	1.2554E-04
398.09	6.8190E-05
398.30	1.7634E-04
398.51	3.5135E-05
398.72	1.6554E-04
398.92	3.0689E-04
399.13	3.0233E-04
399.34	4.0381E-04
399.54	4.0748E-04
399.75	3.1993E-04
399.96	1.5572E-04
400.16	1.4900E-04
400.37	3.0250E-04
400.58	2.8258E-04
400.78	3.3064E-04
400.99	2.3449E-04
401.20	4.0105E-04
401.41	3.3943E-04
401.61	1.7835E-04
401.82	3.1001E-04
402.03	1.9228E-04
402.23	1.7258E-04
402.44	3.5260E-04
402.65	2.4516E-04
402.85	2.7036E-04
403.06	2.7537E-04
403.27	3.1974E-04
403.47	3.0045E-04
403.68	2.0518E-04
403.89	3.5791E-04
404.09	2.5831E-04
404.30	1.4269E-04
404.51	3.6503E-04
404.71	3.4059E-04
404.92	4.3496E-04
405.13	1.0776E-04
405.33	2.1027E-04
405.54	2.2536E-04
405.75	2.9243E-04
405.95	2.5118E-04
406.16	3.7862E-05
406.37	2.5541E-04
406.57	2.7245E-04
406.78	3.3046E-04
406.99	2.9467E-04
407.19	3.6043E-04
407.40	4.3144E-04
407.60	3.6423E-04
407.81	3.2705E-04
408.02	1.7790E-04
408.22	2.0911E-04
408.43	3.8389E-04
408.64	3.1546E-04
408.84	2.8038E-04
409.05	1.1349E-04
409.26	3.6226E-04
409.46	3.8013E-04
409.67	2.4347E-04
409.87	3.4521E-04
410.08	2.7625E-04
410.29	4.6368E-04
410.49	1.4601E-04
410.70	3.6237E-04
410.91	2.9778E-04
411.11	4.3870E-04
411.32	3.5417E-04
411.52	1.8779E-04
411.73	4.2564E-04
411.94	3.8370E-04
412.14	4.4541E-04
412.35	3.0817E-04
412.56	4.4602E-04
412.76	4.2230E-04
412.97	2.8847E-04
413.17	3.8215E-04
413.38	4.9607E-04
413.59	3.0033E-04
413.79	3.5933E-04
414.00	4.2677E-04
414.20	4.8268E-04
414.41	2.6081E-04
414.62	4.2821E-04
414.82	3.1668E-04
415.03	2.0005E-04
415.23	4.1434E-04
415.44	2.2895E-04
415.65	3.7577E-04
415.85	2.3098E-04
416.06	4.1450E-04
416.26	3.6480E-04
416.47	3.9271E-04
416.68	4.9368E-04
416.88	5.4726E-04
417.09	1.4724E-04
417.29	3.6677E-04
417.50	4.4317E-04
417.71	3.8966E-04
417.91	3.3629E-04
418.12	3.1741E-04
418.32	4.7102E-04
418.53	4.5592E-04
418.73	3.0841E-04
418.94	3.2833E-04
419.15	3.0429E-04
419.35	5.1902E-04
419.56	4.1018E-04
419.76	2.2855E-04
419.97	5.3583E-04
420.17	3.9907E-04
420.38	1.6691E-04
420.59	4.7470E-04
420.79	5.1130E-04
421.00	3.5215E-04
421.20	1.6448E-04
421.41	3.3350E-04
421.61	2.8545E-04
421.82	3.8976E-04
422.02	3.4339E-04
422.23	9.1809E-05
422.44	5.0221E-04
422.64	2.7855E-04
422.85	3.3552E-04
423.05	3.6314E-04
423.26	3.8893E-04
423.46	3.5148E-04
423.67	2.8030E-04
423.87	3.0758E-04
424.08	2.6425E-04
424.29	2.7191E-04
424.49	4.4478E-04
424.70	1.8835E-04
424.90	3.9359E-04
425.11	4.1340E-04
425.31	3.6833E-04
425.52	4.4634E-04
425.72	3.0398E-04
425.93	3.6710E-04
426.13	2.8904E-04
426.34	3.1719E-04
426.54	3.4135E-04
426.75	3.6518E-04
426.95	3.8452E-04
427.16	4.1550E-04
427.36	3.8887E-04
427.57	2.7972E-04
427.78	2.7173E-04
427.98	2.8570E-04
428.19	3.5393E-04
428.39	2.4185E-04
428.60	2.7405E-04
428.80	2.9620E-04
429.01	4.1061E-04
429.21	1.6358E-04
429.42	5.0470E-04
429.62	4.6097E-04
429.83	3.4673E-04
430.03	2.1010E-04
430.24	4.2004E-04
430.44	2.3791E-04
430.65	3.7012E-04
430.85	3.9860E-04
431.06	2.6012E-04
431.26	4.2751E-04
431.47	1.7963E-04
431.67	5.3029E-04
431.88	4.1567E-04
432.08	4.6203E-04
432.29	4.6659E-04
432.49	3.2103E-04
432.70	3.1791E-04
432.90	5.2962E-04
433.11	4.7656E-04
433.31	1.9926E-04
433.52	4.0436E-04
433.72	3.2648E-04
433.93	3.9556E-04
434.13	3.7279E-04
434.34	5.8032E-04
434.54	3.1841E-04
434.74	3.9708E-04
434.95	4.3067E-04
435.15	3.7743E-04
435.36	4.3689E-04
435.56	3.2508E-04
435.77	4.8024E-04
435.97	3.2510E-04
436.18	7.0990E-04
436.38	5.1851E-04
436.59	3.9967E-04
436.79	5.6309E-04
437.00	5.3524E-04
437.20	4.4165E-04
437.41	4.0373E-04
437.61	5.0349E-04
437.81	4.7586E-04
438.02	4.4747E-04
438.22	5.1268E-04
438.43	3.4719E-04
438.63	6.2151E-04
438.84	4.1960E-04
439.04	4.2311E-04
439.25	4.7144E-04
439.45	3.4835E-04
439.66	3.7178E-04
439.86	4.0371E-04
440.06	6.2135E-04
440.27	4.0409E-04
440.47	2.9423E-04
440.68	5.4418E-04
440.88	4.5843E-04
441.09	5.6809E-04
441.29	5.4308E-04
441.49	5.0128E-04
441.70	6.3871E-04
441.90	5.1770E-04
442.11	5.8437E-04
442.31	6.5951E-04
442.52	5.1259E-04
442.72	4.7633E-04
442.92	3.8483E-04
443.13	5.7183E-04
443.33	3.3935E-04
443.54	4.9367E-04
443.74	4.8060E-04
443.95	5.8835E-04
444.15	5.0626E-04
444.35	6.0165E-04
444.56	4.6478E-04
444.76	3.7549E-04
444.97	7.0950E-04
445.17	5.8004E-04
445.37	7.3534E-04
445.58	4.5452E-04
445.78	5.2614E-04
445.99	3.8066E-04
446.19	3.8251E-04
446.39	4.2910E-04
446.60	3.3524E-04
446.80	3.5002E-04
447.01	5.1327E-04
447.21	6.3753E-04
447.41	4.0135E-04
447.62	5.8770E-04
447.82	4.9039E-04
448.03	5.6070E-04
448.23	5.3228E-04
448.43	5.5200E-04
448.64	6.1527E-04
448.84	5.8329E-04
449.05	5.0150E-04
449.25	6.0454E-04
449.45	4.7280E-04
449.66	5.2631E-04
449.86	5.3778E-04
450.07	4.2037E-04
450.27	5.4812E-04
450.47	4.7553E-04
450.68	5.5724E-04
450.88	4.7207E-04
451.08	5.4627E-04
451.29	5.8145E-04
451.49	6.1133E-04
451.70	5.8518E-04
451.90	6.5623E-04
452.10	6.2318E-04
452.31	4.5044E-04
452.51	6.3290E-04
452.71	5.8196E-04
452.92	5.6317E-04
453.12	6.7450E-04
453.32	5.7001E-04
453.53	3.6056E-04
453.73	4.0208E-04
453.93	4.1344E-04
454.14	6.4835E-04
454.34	6.0273E-04
454.55	6.4821E-04
454.75	5.9700E-04
454.95	4.5942E-04
455.16	7.2237E-04
455.36	4.9640E-04
455.56	7.2746E-04
455.77	6.6192E-04
455.97	5.8922E-04
456.17	4.9640E-04
456.38	5.9943E-04
456.58	7.1949E-04
456.78	5.5157E-04
456.99	4.0096E-04
457.19	5.4519E-04
457.39	5.2726E-04
457.60	5.9472E-04
457.80	5.5411E-04
458.00	5.0889E-04
458.21	6.8105E-04
458.41	6.5018E-04
458.61	5.4219E-04
458.82	5.2706E-04
459.02	4.4947E-04
459.22	7.2374E-04
459.43	6.6105E-04
459.63	6.0395E-04
459.83	5.0392E-04
460.03	5.9588E-04
460.24	6.6288E-04
460.44	5.1724E-04
460.64	4.4084E-04
460.85	6.2162E-04
461.05	5.7528E-04
461.25	6.0711E-04
461.46	5.2548E-04
461.66	4.5930E-04
461.86	5.8753E-04
462.07	6.7316E-04
462.27	6.0583E-04
462.47	7.1462E-04
462.67	5.8271E-04
462.88	6.7810E-04
463.08	4.6175E-04
463.28	6.2084E-04
463.49	7.1090E-04
463.69	6.5453E-04
463.89	6.6177E-04
464.09	6.8119E-04
464.30	5.9376E-04
464.50	7.3763E-04
464.70	7.4265E-04
464.91	5.0223E-04
465.11	5.3109E-04
465.31	5.4223E-04
465.51	6.6787E-04
465.72	6.3187E-04
465.92	6.1191E-04
466.12	5.0885E-04
466.33	6.3486E-04
466.53	6.0561E-04
466.73	5.5418E-04
466.93	6.5852E-04
467.14	5.1419E-04
467.34	8.2447E-04
467.54	6.6357E-04
467.74	6.6213E-04
467.95	6.2755E-04
468.15	5.6207E-04
468.35	6.7363E-04
468.55	7.3858E-04
468.76	7.0926E-04
468.96	4.7819E-04
469.16	6.2927E-04
469.37	6.1239E-04
469.57	6.5606E-04
469.77	5.4914E-04
469.97	6.3282E-04
470.18	7.0626E-04
470.38	7.2496E-04
470.58	6.4133E-04
470.78	7.0223E-04
470.99	6.9162E-04
471.19	5.8853E-04
471.39	6.6252E-04
471.59	5.0923E-04
471.79	6.0275E-04
472.00	6.3292E-04
472.20	6.8397E-04
472.40	5.6021E-04
472.60	5.8922E-04
472.81	7.6318E-04
473.01	7.1672E-04
473.21	5.9444E-04
473.41	4.3611E-04
473.62	6.8923E-04
473.82	7.6296E-04
474.02	6.2170E-04
474.22	6.3199E-04
474.42	8.2178E-04
474.63	6.9905E-04
474.83	6.4130E-04
475.03	6.4806E-04
475.23	7.0157E-04
475.44	6.5420E-04
475.64	6.4569E-04
475.84	6.9616E-04
476.04	6.3935E-04
476.24	6.8117E-04
476.45	6.9722E-04
476.65	6.1046E-04
476.85	6.0731E-04
477.05	7.1557E-04
477.25	7.6621E-04
477.46	6.8660E-04
477.66	6.6043E-04
477.86	7.5225E-04
478.06	7.0384E-04
478.26	7.3122E-04
478.47	6.9249E-04
478.67	8.8335E-04
478.87	6.7513E-04
479.07	5.9525E-04
479.27	7.1690E-04
479.47	7.5154E-04
479.68	7.2854E-04
479.88	7.4895E-04
480.08	7.1454E-04
480.28	7.4929E-04
480.48	7.2697E-04
480.69	7.8565E-04
480.89	6.8365E-04
481.09	7.1547E-04
481.29	8.3261E-04
481.49	5.3036E-04
481.69	7.5120E-04
481.90	7.0673E-04
482.10	7.3231E-04
482.30	7.9117E-04
482.50	7.6551E-04
482.70	6.9391E-04
482.90	7.0619E-04
483.11	7.2281E-04
483.31	7.2995E-04
483.51	5.8000E-04
483.71	6.2183E-04
483.91	6.5772E-04
484.11	6.7933E-04
484.32	6.7497E-04
484.52	7.3415E-04
484.72	7.2029E-04
484.92	6.9208E-04
485.12	6.8340E-04
485.32	6.7269E-04
485.52	6.5611E-04
485.73	5.8136E-04
485.93	5.7095E-04
486.13	5.8596E-04
486.33	6.1666E-04
486.53	6.6684E-04
486.73	6.8895E-04
486.93	6.3276E-04
487.14	7.5713E-04
487.34	7.2572E-04
487.54	7.1908E-04
487.74	7.6049E-04
487.94	5.7800E-04
488.14	7.1753E-04
488.34	7.0806E-04
488.54	6.9334E-04
488.75	6.7251E-04
488.95	7.0347E-04
489.15	6.7570E-04
489.35	6.5065E-04
489.55	6.7672E-04
489.75	7.2331E-04
489.95	6.8115E-04
490.15	6.8350E-04
490.36	7.3816E-04
490.56	6.9295E-04
490.76	7.6936E-04
490.96	7.2094E-04
491.16	7.5015E-04
491.36	7.1991E-04
491.56	7.0243E-04
491.76	5.7908E-04
491.96	7.1266E-04
492.17	6.8750E-04
492.37	7.3279E-04
492.57	7.7533E-04
492.77	7.8044E-04
492.97	8.2512E-04
493.17	7.6621E-04
493.37	7.4969E-04
493.57	7.1684E-04
493.77	6.9977E-04
493.97	8.1412E-04
494.17	7.1822E-04
494.38	7.5118E-04
494.58	6.9499E-04
494.78	6.9557E-04
494.98	6.9675E-04
495.18	7.5424E-04
495.38	7.4710E-04
495.58	7.8135E-04
495.78	7.8796E-04
495.98	8.3222E-04
496.18	8.0899E-04
496.38	7.4161E-04
496.58	6.5872E-04
496.78	8.0954E-04
496.99	7.0457E-04
497.19	7.7948E-04
497.39	8.2172E-04
497.59	7.6551E-04
497.79	6.8478E-04
497.99	7.7571E-04
498.19	7.9584E-04
498.39	8.1756E-04
498.59	7.3750E-04
498.79	7.2626E-04
498.99	7.3442E-04
499.19	7.8649E-04
499.39	7.9808E-04
499.59	7.3305E-04
499.79	7.4519E-04
499.99	7.4224E-04
500.19	8.1603E-04
500.40	7.5796E-04
500.60	8.0920E-04
500.80	8.0368E-04
501.00	7.6623E-04
501.20	7.4922E-04
501.40	8.5133E-04
501.60	7.8525E-04
501.80	7.7948E-04
502.00	8.3469E-04
502.20	7.9477E-04
502.40	7.9392E-04
502.60	7.1683E-04
502.80	8.8663E-04
503.00	8.3520E-04
503.20	7.7976E-04
503.40	7.4496E-04
503.60	7.8754E-04
503.80	8.6220E-04
504.00	8.0474E-04
504.20	8.7463E-04
504.40	8.5531E-04
504.60	9.0316E-04
504.80	9.0120E-04
505.00	8.8234E-04
505.20	9.4747E-04
505.40	9.0072E-04
505.60	8.6968E-04
505.80	9.1061E-04
506.00	9.1478E-04
506.20	8.8696E-04
506.40	8.8601E-04
506.60	8.9053E-04
506.80	8.3728E-04
507.00	9.0651E-04
507.20	9.4338E-04
507.40	9.9388E-04
507.60	9.1341E-04
507.80	9.4894E-04
508.00	9.6500E-04
508.20	1.0470E-03
508.40	9.9167E-04
508.60	9.1699E-04
508.80	8.7075E-04
509.00	1.0659E-03
509.20	9.9131E-04
509.40	9.5295E-04
509.60	9.9388E-04
509.80	9.4721E-04
510.00	1.0706E-03
510.20	1.0456E-03
510.40	1.0790E-03
510.60	1.0087E-03
510.80	9.8091E-04
511.00	9.7454E-04
511.20	1.1249E-03
511.40	1.0148E-03
511.60	1.0331E-03
511.80	1.0601E-03
512.00	1.0630E-03
512.20	1.1086E-03
512.40	1.0405E-03
512.60	1.0730E-03
512.80	1.0843E-03
513.00	1.1542E-03
513.20	1.1220E-03
513.40	1.0719E-03
513.59	1.0306E-03
513.79	1.1201E-03
513.99	1.0862E-03
514.19	1.1076E-03
514.39	1.0631E-03
514.59	1.1407E-03
514.79	1.0678E-03
514.99	1.0525E-03
515.19	1.0982E-03
515.39	1.1146E-03
515.59	1.1286E-03
515.79	9.9366E-04
515.99	1.1622E-03
516.19	1.1337E-03
516.39	1.1005E-03
516.59	1.1265E-03
516.79	1.1978E-03
516.98	1.0576E-03
517.18	1.1821E-03
517.38	1.1626E-03
517.58	1.1646E-03
517.78	1.1605E-03
517.98	1.1693E-03
518.18	1.1966E-03
518.38	1.3417E-03
518.58	1.2242E-03
518.78	1.2038E-03
518.98	1.2055E-03
519.18	1.2626E-03
519.38	1.3277E-03
519.57	1.2977E-03
519.77	1.2313E-03
519.97	1.3263E-03
520.17	1.2962E-03
520.37	1.3005E-03
520.57	1.3590E-03
520.77	1.3883E-03
520.97	1.3756E-03
521.17	1.3474E-03
521.37	1.4274E-03
521.57	1.4736E-03
521.76	1.3786E-03
521.96	1.4640E-03
522.16	1.4278E-03
522.36	1.5432E-03
522.56	1.3759E-03
522.76	1.4534E-03
522.96	1.5525E-03
523.16	1.4919E-03
523.36	1.5634E-03
523.55	1.4736E-03
523.75	1.5090E-03
523.95	1.5189E-03
524.15	1.4518E-03
524.35	1.5064E-03
524.55	1.5247E-03
524.75	1.5825E-03
524.95	1.5987E-03
525.14	1.5467E-03
525.34	1.5165E-03
525.54	1.4389E-03
525.74	1.5164E-03
525.94	1.5377E-03
526.14	1.6218E-03
526.34	1.6043E-03
526.54	1.6867E-03
526.73	1.5475E-03
526.93	1.6696E-03
527.13	1.6794E-03
527.33	1.6879E-03
527.53	1.7432E-03
527.73	1.6542E-03
527.93	1.7255E-03
528.12	1.5855E-03
528.32	1.6493E-03
528.52	1.7616E-03
528.72	1.7959E-03
528.92	1.7132E-03
529.12	1.7114E-03
529.32	1.7430E-03
529.51	1.7789E-03
529.71	1.7911E-03
529.91	1.7815E-03
530.11	1.8478E-03
530.31	1.9346E-03
530.51	1.8043E-03
530.70	1.7813E-03
530.90	1.8654E-03
531.10	1.8129E-03
531.30	1.8637E-03
531.50	1.8495E-03
531.70	1.8728E-03
531.89	1.7881E-03
532.09	1.8105E-03
532.29	1.8067E-03
532.49	1.9284E-03
532.69	1.8830E-03
532.88	1.8508E-03
533.08	1.7824E-03
533.28	1.8631E-03
533.48	1.9721E-03
533.68	1.9079E-03
533.88	2.0459E-03
534.07	2.0232E-03
534.27	2.0073E-03
534.47	2.0642E-03
534.67	1.8992E-03
534.87	2.0506E-03
535.06	2.0385E-03
535.26	1.9740E-03
535.46	1.9401E-03
535.66	2.1609E-03
535.86	2.0014E-03
536.05	1.9864E-03
536.25	2.0345E-03
536.45	2.0581E-03
536.65	2.0436E-03
536.85	1.9964E-03
537.04	2.0691E-03
537.24	2.1792E-03
537.44	1.9410E-03
537.64	1.8852E-03
537.83	2.0684E-03
538.03	2.0853E-03
538.23	2.1584E-03
538.43	2.1198E-03
538.63	1.9962E-03
538.82	2.0589E-03
539.02	2.0692E-03
539.22	2.1437E-03
539.42	2.0455E-03
539.61	2.1433E-03
539.81	2.1572E-03
540.01	2.0437E-03
540.21	2.1201E-03
540.41	2.0799E-03
540.60	2.1097E-03
540.80	2.1068E-03
541.00	2.1068E-03
541.20	2.2144E-03
541.39	2.1880E-03
541.59	2.1675E-03
541.79	2.1878E-03
541.99	2.2929E-03
542.18	2.2228E-03
542.38	2.2003E-03
542.58	2.1905E-03
542.78	2.2448E-03
542.97	2.1170E-03
543.17	2.2349E-03
543.37	2.1461E-03
543.57	2.2888E-03
543.76	2.3869E-03
543.96	2.3254E-03
544.16	2.2231E-03
544.36	2.2859E-03
544.55	2.4335E-03
544.75	2.3484E-03
544.95	2.4135E-03
545.14	2.1811E-03
545.34	2.4045E-03
545.54	2.2791E-03
545.74	2.3241E-03
545.93	2.4238E-03
546.13	2.3818E-03
546.33	2.2888E-03
546.53	2.2660E-03
546.72	2.4444E-03
546.92	2.4359E-03
547.12	2.3539E-03
547.31	2.4361E-03
547.51	2.3895E-03
547.71	2.5224E-03
547.91	2.5071E-03
548.10	2.3309E-03
548.30	2.4083E-03
548.50	2.5780E-03
548.69	2.5236E-03
548.89	2.4903E-03
549.09	2.5080E-03
549.29	2.4525E-03
549.48	2.6992E-03
549.68	2.4293E-03
549.88	2.5894E-03
550.07	2.6321E-03
550.27	2.5947E-03
550.47	2.0827E-03
550.66	2.7446E-03
550.86	2.4693E-03
551.06	2.7491E-03
551.25	2.5505E-03
551.45	2.7177E-03
551.65	2.7197E-03
551.85	2.8012E-03
552.04	2.4943E-03
552.24	2.6620E-03
552.44	2.5604E-03
552.63	2.5443E-03
552.83	2.6570E-03
553.03	2.5024E-03
553.22	2.7560E-03
553.42	2.5991E-03
553.62	2.8128E-03
553.81	2.6152E-03
554.01	2.7393E-03
554.21	2.5858E-03
554.40	2.7105E-03
554.60	2.6642E-03
554.80	2.7464E-03
554.99	2.7366E-03
555.19	2.7162E-03
555.39	2.7678E-03
555.58	2.6583E-03
555.78	2.7086E-03
555.98	2.6695E-03
556.17	2.6722E-03
556.37	2.7265E-03
556.56	2.7438E-03
556.76	2.7408E-03
556.96	2.6500E-03
557.15	2.7184E-03
557.35	2.6740E-03
557.55	2.6669E-03
557.74	2.6464E-03
557.94	2.7414E-03
558.14	2.7958E-03
558.33	2.6286E-03
558.53	2.6080E-03
558.73	2.7052E-03
558.92	2.5862E-03
559.12	2.8127E-03
559.31	2.8361E-03
559.51	2.9180E-03
559.71	2.7678E-03
559.90	2.8553E-03
560.10	2.8431E-03
560.30	2.8181E-03
560.49	2.7408E-03
560.69	2.8596E-03
560.88	2.9444E-03
561.08	2.7024E-03
561.28	2.7399E-03
561.47	2.8604E-03
561.67	2.8816E-03
561.86	2.7814E-03
562.06	2.8465E-03
562.26	2.9345E-03
562.45	2.8388E-03
562.65	2.9176E-03
562.84	2.7269E-03
563.04	2.8047E-03
563.24	2.7843E-03
563.43	2.9421E-03
563.63	2.9371E-03
563.82	2.8520E-03
564.02	2.9472E-03
564.22	2.9945E-03
564.41	2.8169E-03
564.61	2.9307E-03
564.80	2.9452E-03
565.00	2.8571E-03
565.20	3.0275E-03
565.39	2.8148E-03
565.59	2.7412E-03
565.78	2.8815E-03
565.98	2.7434E-03
566.18	2.9899E-03
566.37	2.8912E-03
566.57	2.8369E-03
566.76	2.7836E-03
566.96	2.9773E-03
567.15	2.8312E-03
567.35	3.0496E-03
567.55	2.9052E-03
567.74	2.9296E-03
567.94	2.8308E-03
568.13	2.9390E-03
568.33	3.0491E-03
568.52	3.0160E-03
568.72	2.9048E-03
568.91	2.8766E-03
569.11	2.9005E-03
569.31	3.0573E-03
569.50	2.8449E-03
569.70	2.9579E-03
569.89	2.9016E-03
570.09	2.8606E-03
570.28	2.8076E-03
570.48	2.8820E-03
570.67	3.0208E-03
570.87	2.7964E-03
571.07	2.7842E-03
571.26	2.9245E-03
571.46	2.8817E-03
571.65	2.9389E-03
571.85	2.9927E-03
572.04	2.9036E-03
572.24	3.0574E-03
572.43	2.8817E-03
572.63	3.0183E-03
572.82	2.9003E-03
573.02	3.0103E-03
573.21	2.8852E-03
573.41	2.9682E-03
573.60	3.0834E-03
573.80	3.0325E-03
573.99	2.9710E-03
574.19	3.1309E-03
574.38	3.0115E-03
574.58	3.0617E-03
574.78	2.9080E-03
574.97	3.0774E-03
575.17	3.0292E-03
575.36	2.9575E-03
575.56	2.8889E-03
575.75	3.1342E-03
575.95	2.9935E-03
576.14	2.9255E-03
576.34	3.1207E-03
576.53	2.9725E-03
576.73	3.0311E-03
576.92	2.9016E-03
577.12	3.1723E-03
577.31	2.8251E-03
577.51	3.1792E-03
577.70	3.0503E-03
577.90	3.0435E-03
578.09	3.1176E-03
578.29	2.9855E-03
578.48	3.1799E-03
578.68	3.0615E-03
578.87	3.2902E-03
579.06	3.0325E-03
579.26	3.1550E-03
579.45	3.0483E-03
579.65	3.3108E-03
579.84	3.1171E-03
580.04	3.2307E-03
580.23	3.2969E-03
580.43	3.0211E-03
580.62	3.1851E-03
580.82	3.1929E-03
581.01	3.1248E-03
581.21	3.0992E-03
581.40	3.0678E-03
581.60	3.2457E-03
581.79	3.3033E-03
581.99	3.1413E-03
582.18	3.1555E-03
582.37	3.2535E-03
582.57	3.2439E-03
582.76	3.3369E-03
582.96	3.3662E-03
583.15	3.3347E-03
583.35	3.3301E-03
583.54	3.3636E-03
583.74	3.3348E-03
583.93	3.2341E-03
584.12	3.1569E-03
584.32	3.4147E-03
584.51	3.3192E-03
584.71	3.1535E-03
584.90	3.1953E-03
585.10	3.2318E-03
585.29	3.2782E-03
585.49	3.3131E-03
585.68	3.3871E-03
585.87	3.3107E-03
586.07	3.2809E-03
586.26	3.2446E-03
586.46	3.2525E-03
586.65	3.2006E-03
586.85	3.2748E-03
587.04	3.0350E-03
587.23	3.3084E-03
587.43	3.2368E-03
587.62	2.9559E-03
587.82	3.2156E-03
588.01	3.0734E-03
588.20	3.1275E-03
588.40	2.9968E-03
588.59	3.1285E-03
588.79	3.1800E-03
588.98	3.2699E-03
589.18	3.1573E-03
589.37	3.2609E-03
589.56	3.0618E-03
589.76	2.9875E-03
589.95	3.2784E-03
590.15	3.1692E-03
590.34	3.0463E-03
590.53	3.2846E-03
590.73	3.1473E-03
590.92	3.1509E-03
591.11	3.2719E-03
591.31	3.2677E-03
591.50	3.3613E-03
591.70	3.2910E-03
591.89	3.4644E-03
592.08	3.2424E-03
592.28	3.1747E-03
592.47	3.4219E-03
592.67	3.3811E-03
592.86	3.3723E-03
593.05	3.1855E-03
593.25	3.4032E-03
593.44	3.3240E-03
593.63	3.5055E-03
593.83	3.3351E-03
594.02	3.5527E-03
594.22	3.5378E-03
594.41	3.6464E-03
594.60	3.4802E-03
594.80	3.5209E-03
594.99	3.5484E-03
595.18	3.5433E-03
595.38	3.4896E-03
595.57	3.5475E-03
595.76	3.5921E-03
595.96	3.5402E-03
596.15	3.3733E-03
596.34	3.7743E-03
596.54	3.7366E-03
596.73	3.6329E-03
596.93	3.7172E-03
597.12	3.6017E-03
597.31	3.7279E-03
597.51	3.6251E-03
597.70	3.6724E-03
597.89	3.6189E-03
598.09	3.5718E-03
598.28	3.9013E-03
598.47	3.6206E-03
598.67	3.6745E-03
598.86	3.5431E-03
599.05	3.8051E-03
599.25	3.7000E-03
599.44	3.7838E-03
599.63	3.8847E-03
599.83	3.7016E-03
600.02	3.7285E-03
600.21	3.7499E-03
600.41	3.8165E-03
600.60	3.6301E-03
600.79	3.7778E-03
600.98	3.7928E-03
601.18	3.9901E-03
601.37	3.7119E-03
601.56	3.7612E-03
601.76	4.0857E-03
601.95	3.7599E-03
602.14	3.8344E-03
602.34	3.8382E-03
602.53	4.0029E-03
602.72	3.8083E-03
602.92	3.9606E-03
603.11	3.8712E-03
603.30	3.9790E-03
603.49	3.8620E-03
603.69	4.1146E-03
603.88	3.9572E-03
604.07	4.0746E-03
604.27	3.9549E-03
604.46	3.8000E-03
604.65	3.9629E-03
604.84	3.9399E-03
605.04	4.0381E-03
605.23	3.9729E-03
605.42	3.9717E-03
605.62	4.0493E-03
605.81	3.9217E-03
606.00	3.9625E-03
606.19	4.0997E-03
606.39	4.0955E-03
606.58	3.9522E-03
606.77	3.9879E-03
606.97	3.8672E-03
607.16	4.0564E-03
607.35	4.1302E-03
607.54	3.9970E-03
607.74	4.1782E-03
607.93	4.2128E-03
608.12	4.0006E-03
608.31	4.0874E-03
608.51	4.1315E-03
608.70	4.0222E-03
608.89	3.9963E-03
609.08	3.9062E-03
609.28	4.0709E-03
609.47	4.0973E-03
609.66	4.1381E-03
609.85	4.1807E-03
610.05	4.2345E-03
610.24	4.0433E-03
610.43	4.1442E-03
610.62	4.0847E-03
610.82	4.0368E-03
611.01	4.1742E-03
611.20	4.0982E-03
611.39	4.1281E-03
611.59	4.1192E-03
611.78	4.2172E-03
611.97	4.1754E-03
612.16	4.3650E-03
612.35	4.1266E-03
612.55	4.1630E-03
612.74	4.3081E-03
612.93	4.2841E-03
613.12	4.0814E-03
613.32	4.2091E-03
613.51	4.2629E-03
613.70	4.2274E-03
613.89	4.2364E-03
614.08	4.2760E-03
614.28	4.2420E-03
614.47	4.1508E-03
614.66	4.2113E-03
614.85	4.3351E-03
615.04	4.3046E-03
615.24	4.4775E-03
615.43	4.2955E-03
615.62	4.2073E-03
615.81	4.2362E-03
616.00	4.0169E-03
616.20	4.2204E-03
616.39	4.2570E-03
616.58	4.2587E-03
616.77	4.2512E-03
616.96	4.5001E-03
617.16	4.4872E-03
617.35	4.4320E-03
617.54	4.3127E-03
617.73	4.2715E-03
617.92	4.2948E-03
618.12	4.4906E-03
618.31	4.4088E-03
618.50	4.4555E-03
618.69	4.3717E-03
618.88	4.6504E-03
619.07	4.5121E-03
619.27	4.5867E-03
619.46	4.6206E-03
619.65	4.8032E-03
619.84	4.5627E-03
620.03	4.5384E-03
620.22	4.7783E-03
620.42	4.3923E-03
620.61	4.8237E-03
620.80	4.7349E-03
620.99	4.7025E-03
621.18	4.9011E-03
621.37	4.6567E-03
621.57	4.4414E-03
621.76	4.7551E-03
621.95	4.7230E-03
622.14	4.5704E-03
622.33	4.4875E-03
622.52	4.6389E-03
622.71	4.7974E-03
622.91	4.8534E-03
623.10	4.7928E-03
623.29	4.7452E-03
623.48	4.6590E-03
623.67	4.8139E-03
623.86	4.8055E-03
624.05	4.7783E-03
624.25	4.6169E-03
624.44	4.8334E-03
624.63	4.9672E-03
624.82	4.8524E-03
625.01	4.7493E-03
625.20	4.9408E-03
625.39	4.6399E-03
625.58	4.9059E-03
625.78	4.9784E-03
625.97	4.6463E-03
626.16	4.7957E-03
626.35	4.7721E-03
626.54	4.9694E-03
626.73	4.9774E-03
626.92	4.8800E-03
627.11	4.8675E-03
627.31	4.8626E-03
627.50	4.8428E-03
627.69	4.9879E-03
627.88	5.0736E-03
628.07	4.6147E-03
628.26	4.9040E-03
628.45	4.8226E-03
628.64	4.8924E-03
628.83	4.8665E-03
629.02	4.5702E-03
629.22	5.1487E-03
629.41	4.8332E-03
629.60	4.6086E-03
629.79	5.0638E-03
629.98	4.8275E-03
630.17	4.9847E-03
630.36	4.9425E-03
630.55	4.9774E-03
630.74	5.0265E-03
630.93	5.1707E-03
631.12	4.8512E-03
631.31	4.8718E-03
631.51	5.1076E-03
631.70	5.0600E-03
631.89	4.8675E-03
632.08	4.9332E-03
632.27	5.0253E-03
632.46	4.9797E-03
632.65	5.0182E-03
632.84	4.8353E-03
633.03	5.2662E-03
633.22	5.0887E-03
633.41	5.2914E-03
633.60	5.2808E-03
633.79	5.1178E-03
633.98	4.8954E-03
634.17	5.1575E-03
634.37	5.1511E-03
634.56	5.3160E-03
634.75	4.9757E-03
634.94	5.2632E-03
635.13	5.1141E-03
635.32	5.3179E-03
635.51	5.2870E-03
635.70	5.0654E-03
635.89	5.5260E-03
636.08	5.1964E-03
636.27	5.0433E-03
636.46	5.3250E-03
636.65	5.1797E-03
636.84	5.0302E-03
637.03	5.2980E-03
637.22	5.2666E-03
637.41	5.1750E-03
637.60	5.2849E-03
637.79	5.3006E-03
637.98	5.2364E-03
638.17	5.2545E-03
638.36	5.0856E-03
638.55	4.9166E-03
638.74	4.9828E-03
638.93	5.0777E-03
639.12	5.0170E-03
639.31	5.0673E-03
639.50	5.0238E-03
639.69	4.9654E-03
639.88	5.2024E-03
640.07	5.0300E-03
640.26	5.2861E-03
640.45	5.1821E-03
640.64	5.2433E-03
640.83	5.2209E-03
641.02	5.4006E-03
641.21	5.1978E-03
641.40	4.8920E-03
641.59	5.2593E-03
641.78	5.3503E-03
641.97	5.3029E-03
642.16	5.3951E-03
642.35	5.3709E-03
642.54	5.3987E-03
642.73	5.2873E-03
642.92	4.8416E-03
643.11	5.4082E-03
643.30	5.4534E-03
643.49	5.1977E-03
643.68	5.3031E-03
643.87	5.0802E-03
644.06	5.2796E-03
644.25	5.0906E-03
644.44	5.1497E-03
644.63	5.1123E-03
644.82	5.1443E-03
645.01	5.2902E-03
645.20	5.2457E-03
645.39	5.1241E-03
645.58	5.0577E-03
645.77	5.0683E-03
645.96	5.2753E-03
646.15	5.1022E-03
646.34	5.1477E-03
646.53	5.0937E-03
646.72	5.1501E-03
646.91	4.9527E-03
647.10	5.3792E-03
647.29	5.0571E-03
647.47	5.2202E-03
647.66	5.0478E-03
647.85	4.9548E-03
648.04	4.9926E-03
648.23	5.0106E-03
648.42	5.4410E-03
648.61	4.8617E-03
648.80	5.1116E-03
648.99	5.2380E-03
649.18	4.9400E-03
649.37	5.2095E-03
649.56	5.0871E-03
649.75	5.0154E-03
649.94	5.2698E-03
650.13	5.2145E-03
650.31	5.2530E-03
650.50	5.1290E-03
650.69	5.2579E-03
650.88	5.1283E-03
651.07	5.1644E-03
651.26	5.2708E-03
651.45	5.5187E-03
651.64	5.3071E-03
651.83	5.0900E-03
652.02	5.2528E-03
652.21	5.1282E-03
652.40	5.1550E-03
652.58	5.5573E-03
652.77	5.0748E-03
652.96	5.0100E-03
653.15	5.2656E-03
653.34	5.2374E-03
653.53	5.2600E-03
653.72	5.2287E-03
653.91	4.9902E-03
654.10	5.0835E-03
654.29	4.8983E-03
654.47	5.2866E-03
654.66	4.7625E-03
654.85	4.8693E-03
655.04	4.7341E-03
655.23	4.9667E-03
655.42	4.6537E-03
655.61	4.9201E-03
655.80	4.8382E-03
655.98	5.0151E-03
656.17	4.9889E-03
656.36	5.0797E-03
656.55	4.9206E-03
656.74	5.2843E-03
656.93	5.2294E-03
657.12	5.2757E-03
657.31	5.0278E-03
657.49	5.4952E-03
657.68	5.3599E-03
657.87	4.9680E-03
658.06	5.5422E-03
658.25	5.2435E-03
658.44	5.4735E-03
658.63	5.3337E-03
658.81	5.2551E-03
659.00	5.4567E-03
659.19	5.3552E-03
659.38	5.7398E-03
659.57	5.7384E-03
659.76	5.5056E-03
659.95	5.8733E-03
660.13	5.3343E-03
660.32	5.6754E-03
660.51	5.5657E-03
660.70	5.7870E-03
660.89	5.5935E-03
661.08	5.6620E-03
661.26	5.5179E-03
661.45	5.7417E-03
661.64	5.5904E-03
661.83	5.5738E-03
662.02	5.6588E-03
662.21	5.8287E-03
662.39	5.9514E-03
662.58	5.7380E-03
662.77	6.1326E-03
662.96	5.9305E-03
663.15	5.6960E-03
663.33	6.0930E-03
663.52	5.8282E-03
663.71	5.8298E-03
663.90	5.8328E-03
664.09	5.6059E-03
664.28	5.8231E-03
664.46	5.6781E-03
664.65	5.7193E-03
664.84	5.5626E-03
665.03	5.8297E-03
665.22	5.9378E-03
665.40	5.9264E-03
665.59	5.7537E-03
665.78	5.7348E-03
665.97	5.7365E-03
666.16	5.9124E-03
666.34	6.0665E-03
666.53	5.7386E-03
666.72	6.0486E-03
666.91	5.8628E-03
667.09	5.9003E-03
667.28	6.0498E-03
667.47	5.9987E-03
667.66	5.8879E-03
667.85	5.8855E-03
668.03	5.2026E-03
668.22	6.0672E-03
668.41	5.9323E-03
668.60	5.4990E-03
668.78	6.0946E-03
668.97	5.9008E-03
669.16	5.7238E-03
669.35	6.0734E-03
669.54	5.7109E-03
669.72	6.1182E-03
669.91	5.9152E-03
670.10	6.0197E-03
670.29	5.9807E-03
670.47	6.1516E-03
670.66	6.2503E-03
670.85	6.0516E-03
671.04	5.7844E-03
671.22	5.7948E-03
671.41	6.0486E-03
671.60	6.0980E-03
671.79	6.1181E-03
671.97	5.9343E-03
672.16	6.3353E-03
672.35	6.1907E-03
672.54	6.1783E-03
672.72	5.9904E-03
672.91	5.8267E-03
673.10	6.0071E-03
673.28	5.9274E-03
673.47	5.9804E-03
673.66	6.0069E-03
673.85	6.3694E-03
674.03	6.1714E-03
674.22	6.1628E-03
674.41	5.9636E-03
674.60	6.0084E-03
674.78	5.7197E-03
674.97	5.8928E-03
675.16	6.5433E-03
675.34	6.2749E-03
675.53	6.0889E-03
675.72	5.9632E-03
675.91	6.5469E-03
676.09	6.2604E-03
676.28	6.4454E-03
676.47	6.3489E-03
676.65	5.9979E-03
676.84	6.2720E-03
677.03	6.4233E-03
677.22	6.1322E-03
677.40	6.3629E-03
677.59	6.2361E-03
677.78	6.1233E-03
677.96	6.2474E-03
678.15	6.4135E-03
678.34	6.6541E-03
678.52	6.1210E-03
678.71	6.2023E-03
678.90	6.2659E-03
679.08	6.3735E-03
679.27	6.1385E-03
679.46	6.5787E-03
679.64	6.3364E-03
679.83	6.2344E-03
680.02	6.2953E-03
680.21	5.8464E-03
680.39	6.5281E-03
680.58	6.3412E-03
680.77	6.2543E-03
680.95	6.3029E-03
681.14	5.9512E-03
681.33	6.2971E-03
681.51	6.5168E-03
681.70	6.4269E-03
681.89	6.5350E-03
682.07	6.3289E-03
682.26	5.9492E-03
682.44	6.4434E-03
682.63	6.4133E-03
682.82	6.5388E-03
683.00	5.8650E-03
683.19	6.2736E-03
683.38	6.4118E-03
683.56	6.5181E-03
683.75	6.3557E-03
683.94	6.0203E-03
684.12	6.0077E-03
684.31	6.3363E-03
684.50	6.3978E-03
684.68	6.0687E-03
684.87	6.0762E-03
685.05	6.1705E-03
685.24	5.8179E-03
685.43	6.0385E-03
685.61	6.0232E-03
685.80	5.7569E-03
685.99	6.0493E-03
686.17	5.6879E-03
686.36	6.1256E-03
686.54	6.0900E-03
686.73	5.9463E-03
686.92	5.9823E-03
687.10	5.8275E-03
687.29	6.1036E-03
687.48	5.7908E-03
687.66	6.2920E-03
687.85	5.8888E-03
688.03	6.0578E-03
688.22	5.7888E-03
688.41	6.2116E-03
688.59	5.8063E-03
688.78	6.2722E-03
688.96	6.3812E-03
689.15	6.5986E-03
689.34	5.8476E-03
689.52	6.7104E-03
689.71	6.3984E-03
689.89	6.5968E-03
690.08	6.8989E-03
690.27	6.6358E-03
690.45	6.5477E-03
690.64	6.5320E-03
690.82	6.3756E-03
691.01	6.7373E-03
691.19	6.6430E-03
691.38	6.8015E-03
691.57	7.0028E-03
691.75	6.6571E-03
691.94	7.0585E-03
692.12	6.7886E-03
692.31	7.0868E-03
692.50	6.8801E-03
692.68	7.0704E-03
692.87	7.2890E-03
693.05	7.1375E-03
693.24	6.7895E-03
693.42	7.0073E-03
693.61	7.2266E-03
693.79	7.4271E-03
693.98	7.1010E-03
694.17	7.3570E-03
694.35	7.6530E-03
694.54	7.7213E-03
694.72	7.5668E-03
694.91	7.6135E-03
695.09	7.6735E-03
695.28	7.7420E-03
695.46	7.8381E-03
695.65	7.9543E-03
695.83	8.0408E-03
696.02	8.2880E-03
696.21	8.3899E-03
696.39	8.1137E-03
696.58	8.3590E-03
696.76	7.7529E-03
696.95	8.1578E-03
697.13	8.2919E-03
697.32	8.4740E-03
697.50	8.4736E-03
697.69	8.6160E-03
697.87	8.7903E-03
698.06	8.7999E-03
698.24	8.5108E-03
698.43	8.6109E-03
698.61	9.0549E-03
698.80	8.7755E-03
698.98	9.0541E-03
699.17	8.3672E-03
699.35	8.9342E-03
699.54	8.8144E-03
699.72	8.4845E-03
699.91	9.1539E-03
700.09	9.1709E-03
700.28	9.2696E-03
700.46	9.3272E-03
700.65	9.2288E-03
700.83	9.4228E-03
701.02	9.5923E-03
701.20	8.9010E-03
701.39	9.7823E-03
701.57	9.5440E-03
701.76	9.2810E-03
701.94	9.5950E-03
702.13	9.7690E-03
702.31	9.2196E-03
702.50	1.0515E-02
702.68	1.0290E-02
702.87	1.0483E-02
703.05	1.0580E-02
703.24	1.0452E-02
703.42	9.7451E-03
703.61	1.0732E-02
703.79	1.0939E-02
703.98	1.0419E-02
704.16	1.0744E-02
704.35	1.0646E-02
704.53	1.0920E-02
704.72	1.1008E-02
704.90	1.1159E-02
705.08	1.0813E-02
705.27	1.1496E-02
705.45	1.1456E-02
705.64	1.1667E-02
705.82	1.1594E-02
706.01	1.1627E-02
706.19	1.1486E-02
706.38	1.1704E-02
706.56	1.2191E-02
706.75	1.2151E-02
706.93	1.2031E-02
707.11	1.1683E-02
707.30	1.2276E-02
707.48	1.2240E-02
707.67	1.1955E-02
707.85	1.2167E-02
708.04	1.2422E-02
708.22	1.2407E-02
708.40	1.2193E-02
708.59	1.2091E-02
708.77	1.2749E-02
708.96	1.2593E-02
709.14	1.2831E-02
709.33	1.2701E-02
709.51	1.2992E-02
709.69	1.3039E-02
709.88	1.3220E-02
710.06	1.3189E-02
710.25	1.2929E-02
710.43	1.3286E-02
710.62	1.3574E-02
710.80	1.3401E-02
710.98	1.3588E-02
711.17	1.3525E-02
711.35	1.3738E-02
711.54	1.3899E-02
711.72	1.3599E-02
711.90	1.3993E-02
712.09	1.4037E-02
712.27	1.3623E-02
712.46	1.4016E-02
712.64	1.3747E-02
712.82	1.4353E-02
713.01	1.4348E-02
713.19	1.4327E-02
713.37	1.4072E-02
713.56	1.4002E-02
713.74	1.4352E-02
713.93	1.4079E-02
714.11	1.3905E-02
714.29	1.3540E-02
714.48	1.4116E-02
714.66	1.4064E-02
714.85	1.3728E-02
715.03	1.3771E-02
715.21	1.3645E-02
715.40	1.3297E-02
715.58	1.3309E-02
715.76	1.2992E-02
715.95	1.3086E-02
716.13	1.3477E-02
716.31	1.3175E-02
716.50	1.2994E-02
716.68	1.2690E-02
716.87	1.2961E-02
717.05	1.2921E-02
717.23	1.2505E-02
717.42	1.2756E-02
717.60	1.2584E-02
717.78	1.2743E-02
717.97	1.2738E-02
718.15	1.2586E-02
718.33	1.2470E-02
718.52	1.2775E-02
718.70	1.2992E-02
718.88	1.2691E-02
719.07	1.3527E-02
719.25	1.3129E-02
719.43	1.3418E-02
719.62	1.3366E-02
719.80	1.3474E-02
719.98	1.4023E-02
720.17	1.3893E-02
720.35	1.3976E-02
720.53	1.4438E-02
720.72	1.4669E-02
720.90	1.4460E-02
721.08	1.4355E-02
721.27	1.4608E-02
721.45	1.4649E-02
721.63	1.4642E-02
721.82	1.4945E-02
722.00	1.4761E-02
722.18	1.4791E-02
722.36	1.5215E-02
722.55	1.5094E-02
722.73	1.5157E-02
722.91	1.5152E-02
723.10	1.5429E-02
723.28	1.5236E-02
723.46	1.4626E-02
723.65	1.5180E-02
723.83	1.5260E-02
724.01	1.5204E-02
724.19	1.5540E-02
724.38	1.5564E-02
724.56	1.5747E-02
724.74	1.5992E-02
724.93	1.5409E-02
725.11	1.5575E-02
725.29	1.6083E-02
725.47	1.6110E-02
725.66	1.6205E-02
725.84	1.6142E-02
726.02	1.6311E-02
726.21	1.6749E-02
726.39	1.6467E-02
726.57	1.6661E-02
726.75	1.6574E-02
726.94	1.7085E-02
727.12	1.6767E-02
727.30	1.6773E-02
727.48	1.6655E-02
727.67	1.7176E-02
727.85	1.6980E-02
728.03	1.7277E-02
728.21	1.7680E-02
728.40	1.7351E-02
728.58	1.7965E-02
728.76	1.7760E-02
728.94	1.8101E-02
729.13	1.8417E-02
729.31	1.8051E-02
729.49	1.8469E-02
729.67	1.8611E-02
729.86	1.8887E-02
730.04	1.8629E-02
730.22	1.9294E-02
730.40	1.9335E-02
730.59	1.9532E-02
730.77	1.9808E-02
730.95	2.0348E-02
731.13	2.0325E-02
731.31	2.0544E-02
731.50	2.0206E-02
731.68	2.1123E-02
731.86	2.0940E-02
732.04	2.1328E-02
732.23	2.1766E-02
732.41	2.1644E-02
732.59	2.1937E-02
732.77	2.2147E-02
732.95	2.2351E-02
733.14	2.2278E-02
733.32	2.2923E-02
733.50	2.2788E-02
733.68	2.2828E-02
733.86	2.2914E-02
734.05	2.3284E-02
734.23	2.3519E-02
734.41	2.2985E-02
734.59	2.3442E-02
734.77	2.3638E-02
734.96	2.3207E-02
735.14	2.4088E-02
735.32	2.4120E-02
735.50	2.4167E-02
735.68	2.4712E-02
735.87	2.4444E-02
736.05	2.5092E-02
736.23	2.4268E-02
736.41	2.5055E-02
736.59	2.4974E-02
736.77	2.4867E-02
736.96	2.4896E-02
737.14	2.4635E-02
737.32	2.5372E-02
737.50	2.5669E-02
737.68	2.5613E-02
737.87	2.5843E-02
738.05	2.6220E-02
738.23	2.5535E-02
738.41	2.5947E-02
738.59	2.6191E-02
738.77	2.6409E-02
738.95	2.6843E-02
739.14	2.6259E-02
739.32	2.6420E-02
739.50	2.7169E-02
739.68	2.6650E-02
739.86	2.6961E-02
740.04	2.6994E-02
740.23	2.6748E-02
740.41	2.7462E-02
740.59	2.7650E-02
740.77	2.7975E-02
740.95	2.7780E-02
741.13	2.7744E-02
741.31	2.7700E-02
741.50	2.7914E-02
741.68	2.7946E-02
741.86	2.8004E-02
742.04	2.8572E-02
742.22	2.8822E-02
742.40	2.8733E-02
742.58	2.8949E-02
742.76	2.9126E-02
742.95	2.8545E-02
743.13	2.9527E-02
743.31	2.9372E-02
743.49	2.9302E-02
743.67	2.9873E-02
743.85	2.9819E-02
744.03	2.9624E-02
744.21	2.9914E-02
744.39	2.9568E-02
744.58	3.0182E-02
744.76	3.0254E-02
744.94	3.0583E-02
745.12	3.0335E-02
745.30	3.0109E-02
745.48	3.0519E-02
745.66	3.0657E-02
745.84	3.0088E-02
746.02	3.0092E-02
746.20	3.0365E-02
746.38	3.0659E-02
746.57	3.1122E-02
746.75	3.0067E-02
746.93	3.0766E-02
747.11	3.0320E-02
747.29	3.0658E-02
747.47	3.1036E-02
747.65	3.0940E-02
747.83	3.0310E-02
748.01	3.0862E-02
748.19	3.1030E-02
748.37	3.1001E-02
748.55	3.1019E-02
748.73	3.0859E-02
748.92	3.1233E-02
749.10	3.0954E-02
749.28	3.1479E-02
749.46	3.1177E-02
749.64	3.1057E-02
749.82	3.1276E-02
750.00	3.1693E-02
750.18	3.1576E-02
750.36	3.1122E-02
750.54	3.1751E-02
750.72	3.2073E-02
750.90	3.2103E-02
751.08	3.1930E-02
751.26	3.2276E-02
751.44	3.2329E-02
751.62	3.2720E-02
751.80	3.2414E-02
751.98	3.2615E-02
752.16	3.2807E-02
752.34	3.2947E-02
752.52	3.3189E-02
752.71	3.2510E-02
752.89	3.2410E-02
753.07	3.3309E-02
753.25	3.2612E-02
753.43	3.3561E-02
753.61	3.3109E-02
753.79	3.3922E-02
753.97	3.3858E-02
754.15	3.4044E-02
754.33	3.4279E-02
754.51	3.4341E-02
754.69	3.4466E-02
754.87	3.4209E-02
755.05	3.4361E-02
755.23	3.4772E-02
755.41	3.5039E-02
755.59	3.3063E-02
755.77	3.4253E-02
755.95	3.4098E-02
756.13	3.3314E-02
756.31	3.3838E-02
756.49	3.3634E-02
756.67	3.2992E-02
756.85	3.2561E-02
757.03	3.1963E-02
757.21	3.1558E-02
757.39	3.1211E-02
757.57	3.0763E-02
757.75	2.9539E-02
757.93	2.8393E-02
758.11	2.8110E-02
758.29	2.7498E-02
758.47	2.6551E-02
758.65	2.6147E-02
758.83	2.6212E-02
759.01	2.5234E-02
759.18	2.4313E-02
759.36	2.2945E-02
759.54	2.3145E-02
759.72	2.2143E-02
759.90	2.2167E-02
760.08	2.1868E-02
760.26	2.1617E-02
760.44	2.0867E-02
760.62	2.0285E-02
760.80	2.0189E-02
760.98	2.1061E-02
761.16	2.0957E-02
761.34	2.0552E-02
761.52	2.1216E-02
761.70	2.0516E-02
761.88	2.0758E-02
762.06	2.1005E-02
762.24	2.1060E-02
762.42	2.1409E-02
762.60	2.1645E-02
762.78	2.2101E-02
762.95	2.2224E-02
763.13	2.2961E-02
763.31	2.3507E-02
763.49	2.3623E-02
763.67	2.4240E-02
763.85	2.4154E-02
764.03	2.5591E-02
764.21	2.5509E-02
764.39	2.6436E-02
764.57	2.7493E-02
764.75	2.7768E-02
764.93	2.9215E-02
765.11	2.8972E-02
765.28	3.0212E-02
765.46	3.0572E-02
765.64	3.0892E-02
765.82	3.1720E-02
766.00	3.2506E-02
766.18	3.3012E-02
766.36	3.3394E-02
766.54	3.3733E-02
766.72	3.4330E-02
766.90	3.5488E-02
767.07	3.4785E-02
767.25	3.5665E-02
767.43	3.6167E-02
767.61	3.6854E-02
767.79	3.7214E-02
767.97	3.7408E-02
768.15	3.7487E-02
768.33	3.7439E-02
768.51	3.8222E-02
768.68	3.8449E-02
768.86	3.8294E-02
769.04	3.8581E-02
769.22	3.9665E-02
769.40	3.9669E-02
769.58	3.9417E-02
769.76	4.0430E-02
769.94	4.0356E-02
770.11	3.9886E-02
770.29	4.0296E-02
770.47	4.0312E-02
770.65	4.0536E-02
770.83	4.0539E-02
771.01	4.0994E-02
771.19	4.1011E-02
771.36	4.0589E-02
771.54	4.1177E-02
771.72	4.0810E-02
771.90	4.0328E-02
772.08	4.0994E-02
772.26	4.1407E-02
772.44	4.0472E-02
772.61	4.1014E-02
772.79	4.0417E-02
772.97	4.1213E-02
773.15	4.1670E-02
773.33	4.0665E-02
773.51	4.1222E-02
773.68	4.0646E-02
773.86	4.0385E-02
774.04	4.0748E-02
774.22	4.0272E-02
774.40	4.0553E-02
774.58	4.0895E-02
774.75	4.0710E-02
774.93	4.0011E-02
775.11	4.0912E-02
775.29	4.0374E-02
775.47	3.9929E-02
775.64	4.0782E-02
775.82	4.0376E-02
776.00	4.0587E-02
776.18	4.0096E-02
776.36	4.0143E-02
776.53	4.1028E-02
776.71	4.0110E-02
776.89	3.9950E-02
777.07	4.0346E-02
777.25	4.0236E-02
777.42	4.0259E-02
777.60	3.9868E-02
777.78	4.0404E-02
777.96	4.0076E-02
778.14	4.0574E-02
778.31	4.0152E-02
778.49	3.9443E-02
778.67	3.9638E-02
778.85	3.9879E-02
779.03	4.0120E-02
779.20	4.0057E-02
779.38	3.9847E-02
779.56	3.9331E-02
779.74	4.0013E-02
779.91	3.9453E-02
780.09	3.9324E-02
780.27	3.8894E-02
780.45	3.9156E-02
780.62	3.9533E-02
780.80	3.9688E-02
780.98	3.8827E-02
781.16	3.8408E-02
781.34	3.9233E-02
781.51	3.9328E-02
781.69	3.9394E-02
781.87	3.9142E-02
782.05	3.8911E-02
782.22	3.8949E-02
782.40	3.8649E-02
782.58	3.8863E-02
782.76	3.8335E-02
782.93	3.8931E-02
783.11	3.9252E-02
783.29	3.8366E-02
783.47	3.8441E-02
783.64	3.8662E-02
783.82	3.8207E-02
784.00	3.7527E-02
784.17	3.8125E-02
784.35	3.8160E-02
784.53	3.7913E-02
784.71	3.8246E-02
784.88	3.7846E-02
785.06	3.8576E-02
785.24	3.7804E-02
785.42	3.8224E-02
785.59	3.7881E-02
785.77	3.6975E-02
785.95	3.7394E-02
786.12	3.6869E-02
786.30	3.7386E-02
786.48	3.7265E-02
786.65	3.6935E-02
786.83	3.6987E-02
787.01	3.7049E-02
787.19	3.6764E-02
787.36	3.6940E-02
787.54	3.6653E-02
787.72	3.6776E-02
787.89	3.6610E-02
788.07	3.6386E-02
788.25	3.6184E-02
788.42	3.5958E-02
788.60	3.6439E-02
788.78	3.5844E-02
788.96	3.5894E-02
789.13	3.5381E-02
789.31	3.5499E-02
789.49	3.5439E-02
789.66	3.5769E-02
789.84	3.5139E-02
790.02	3.4438E-02
790.19	3.5017E-02
790.37	3.5322E-02
790.55	3.5147E-02
790.72	3.5192E-02
790.90	3.5809E-02
791.08	3.4928E-02
791.25	3.5028E-02
791.43	3.5118E-02
791.61	3.4739E-02
791.78	3.4741E-02
791.96	3.4023E-02
792.14	3.4614E-02
792.31	3.5013E-02
792.49	3.3920E-02
792.67	3.5175E-02
792.84	3.4326E-02
793.02	3.4354E-02
793.19	3.4084E-02
793.37	3.4747E-02
793.55	3.4737E-02
793.72	3.4580E-02
793.90	3.3755E-02
794.08	3.4155E-02
794.25	3.4160E-02
794.43	3.3674E-02
794.61	3.4013E-02
794.78	3.3960E-02
794.96	3.3340E-02
795.13	3.3971E-02
795.31	3.4147E-02
795.49	3.3392E-02
795.66	3.3929E-02
795.84	3.3739E-02
796.01	3.3870E-02
796.19	3.3494E-02
796.37	3.4057E-02
796.54	3.3806E-02
796.72	3.4037E-02
796.90	3.3695E-02
797.07	3.3271E-02
797.25	3.3800E-02
797.42	3.4167E-02
797.60	3.4020E-02
797.78	3.3733E-02
797.95	3.3310E-02
798.13	3.2994E-02
798.30	3.3678E-02
798.48	3.3441E-02
798.66	3.3941E-02
798.83	3.2880E-02
799.01	3.3405E-02
799.18	3.2950E-02
799.36	3.3657E-02
799.53	3.2239E-02
799.71	3.3317E-02
799.89	3.2749E-02
800.06	3.2783E-02
800.24	3.2792E-02
800.41	3.2033E-02
800.59	3.3136E-02
800.76	3.2160E-02
800.94	3.2098E-02
801.12	3.2629E-02
801.29	3.2502E-02
801.47	3.2761E-02
801.64	3.2009E-02
801.82	3.2653E-02
801.99	3.2482E-02
802.17	3.2513E-02
802.34	3.2264E-02
802.52	3.2229E-02
802.70	3.2527E-02
802.87	3.1832E-02
803.05	3.1563E-02
803.22	3.2767E-02
803.40	3.2068E-02
803.57	3.2079E-02
803.75	3.2727E-02
803.92	3.2260E-02
804.10	3.1512E-02
804.27	3.1622E-02
804.45	3.2037E-02
804.63	3.1879E-02
804.80	3.1615E-02
804.98	3.2118E-02
805.15	3.1215E-02
805.33	3.2480E-02
805.50	3.2612E-02
805.68	3.2475E-02
805.85	3.2744E-02
806.03	3.2275E-02
806.20	3.2396E-02
806.38	3.1116E-02
806.55	3.1468E-02
806.73	3.2731E-02
806.90	3.2027E-02
807.08	3.1777E-02
807.25	3.1138E-02
807.43	3.1899E-02
807.60	3.2175E-02
807.78	3.1302E-02
807.95	3.0607E-02
808.13	3.1020E-02
808.30	3.0792E-02
808.48	3.1603E-02
808.65	3.1223E-02
808.83	3.1928E-02
809.00	3.1157E-02
809.18	3.1873E-02
809.35	3.0584E-02
809.53	3.1411E-02
809.70	3.0869E-02
809.88	3.0936E-02
810.05	3.0659E-02
810.23	3.0987E-02
810.40	3.0499E-02
810.57	3.0354E-02
810.75	2.9638E-02
810.92	2.9397E-02
811.10	2.9405E-02
811.27	2.8702E-02
811.45	2.9014E-02
811.62	2.8604E-02
811.80	2.8113E-02
811.97	2.8522E-02
812.15	2.8477E-02
812.32	2.8359E-02
812.50	2.7158E-02
812.67	2.8833E-02
812.84	2.7140E-02
813.02	2.7665E-02
813.19	2.7328E-02
813.37	2.7219E-02
813.54	2.6347E-02
813.72	2.6414E-02
813.89	2.5552E-02
814.07	2.5987E-02
814.24	2.5936E-02
814.41	2.5969E-02
814.59	2.4932E-02
814.76	2.4645E-02
814.94	2.5057E-02
815.11	2.5193E-02
815.29	2.3387E-02
815.46	2.3514E-02
815.63	2.3777E-02
815.81	2.3716E-02
815.98	2.2364E-02
816.16	2.2406E-02
816.33	2.3372E-02
816.50	2.3708E-02
816.68	2.3072E-02
816.85	2.2611E-02
817.03	2.3144E-02
817.20	2.2881E-02
817.37	2.3435E-02
817.55	2.2945E-02
817.72	2.3289E-02
817.90	2.2487E-02
818.07	2.3178E-02
818.24	2.2319E-02
818.42	2.2803E-02
818.59	2.2831E-02
818.77	2.2910E-02
818.94	2.3699E-02
819.11	2.2777E-02
819.29	2.4001E-02
819.46	2.3861E-02
819.64	2.2742E-02
819.81	2.4454E-02
819.98	2.4216E-02
820.16	2.3358E-02
820.33	2.4079E-02
820.50	2.3967E-02
820.68	2.3305E-02
820.85	2.3884E-02
821.02	2.3542E-02
821.20	2.2895E-02
821.37	2.3596E-02
821.55	2.2465E-02
821.72	2.3247E-02
821.89	2.3411E-02
822.07	2.4050E-02
822.24	2.4032E-02
822.41	2.2705E-02
822.59	2.4649E-02
822.76	2.4605E-02
822.93	2.3486E-02
823.11	2.3854E-02
823.28	2.4313E-02
823.45	2.3837E-02
823.63	2.3936E-02
823.80	2.4601E-02
823.97	2.2958E-02
824.15	2.4742E-02
824.32	2.4024E-02
824.49	2.5406E-02
824.67	2.4287E-02
824.84	2.4838E-02
825.01	2.4826E-02
825.19	2.4921E-02
825.36	2.4914E-02
825.53	2.5499E-02
825.71	2.5127E-02
825.88	2.5163E-02
826.05	2.4121E-02
826.23	2.4950E-02
826.40	2.4419E-02
826.57	2.4546E-02
826.75	2.4169E-02
826.92	2.3631E-02
827.09	2.3576E-02
827.26	2.5299E-02
827.44	2.4500E-02
827.61	2.5299E-02
827.78	2.4827E-02
827.96	2.3584E-02
828.13	2.5350E-02
828.30	2.4733E-02
828.48	2.4377E-02
828.65	2.4290E-02
828.82	2.4397E-02
828.99	2.4349E-02
829.17	2.4579E-02
829.34	2.3124E-02
829.51	2.4341E-02
829.68	2.5282E-02
829.86	2.4961E-02
830.03	2.4396E-02
830.20	2.4685E-02
830.38	2.4433E-02
830.55	2.3698E-02
830.72	2.4649E-02
830.89	2.3536E-02
831.07	2.3534E-02
831.24	2.3562E-02
831.41	2.3862E-02
831.58	2.4586E-02
831.76	2.5273E-02
831.93	2.4730E-02
832.10	2.4668E-02
832.27	2.3339E-02
832.45	2.3313E-02
832.62	2.4413E-02
832.79	2.3839E-02
832.96	2.4721E-02
833.14	2.3470E-02
833.31	2.5147E-02
833.48	2.4455E-02
833.65	2.3926E-02
833.83	2.5383E-02
834.00	2.5560E-02
834.17	2.4712E-02
834.34	2.5270E-02
834.51	2.4801E-02
834.69	2.4401E-02
834.86	2.5663E-02
835.03	2.4894E-02
835.20	2.5663E-02
835.38	2.5094E-02
835.55	2.5316E-02
835.72	2.4984E-02
835.89	2.6901E-02
836.06	2.5246E-02
836.24	2.5318E-02
836.41	2.4812E-02
836.58	2.6310E-02
836.75	2.6274E-02
836.92	2.6001E-02
837.10	2.5390E-02
837.27	2.5916E-02
837.44	2.5388E-02
837.61	2.6905E-02
837.78	2.5675E-02
837.96	2.6394E-02
838.13	2.5980E-02
838.30	2.6793E-02
838.47	2.6369E-02
838.64	2.6095E-02
838.82	2.6020E-02
838.99	2.7336E-02
839.16	2.5906E-02
839.33	2.6134E-02
839.50	2.7241E-02
839.67	2.6571E-02
839.85	2.5222E-02
840.02	2.6379E-02
840.19	2.5826E-02
840.36	2.6971E-02
840.53	2.5433E-02
840.70	2.5210E-02
840.88	2.6599E-02
841.05	2.7006E-02
841.22	2.6272E-02
841.39	2.6202E-02
841.56	2.6397E-02
841.73	2.6129E-02
841.91	2.6721E-02
842.08	2.6611E-02
842.25	2.6396E-02
842.42	2.6682E-02
842.59	2.6305E-02
842.76	2.7621E-02
842.93	2.6397E-02
843.11	2.6635E-02
843.28	2.6250E-02
843.45	2.6324E-02
843.62	2.5442E-02
843.79	2.5714E-02
843.96	2.7107E-02
844.13	2.6428E-02
844.30	2.6353E-02
844.48	2.7139E-02
844.65	2.5531E-02
844.82	2.4960E-02
844.99	2.5953E-02
845.16	2.5812E-02
845.33	2.6075E-02
845.50	2.5961E-02
845.67	2.5079E-02
845.84	2.6006E-02
846.02	2.5468E-02
846.19	2.6017E-02
846.36	2.5984E-02
846.53	2.7092E-02
846.70	2.6223E-02
846.87	2.4848E-02
847.04	2.6357E-02
847.21	2.6206E-02
847.38	2.6203E-02
847.55	2.6153E-02
847.73	2.5283E-02
847.90	2.5682E-02
848.07	2.4819E-02
848.24	2.5156E-02
848.41	2.4718E-02
848.58	2.7268E-02
848.75	2.5198E-02
848.92	2.6556E-02
849.09	2.5443E-02
849.26	2.4938E-02
849.43	2.4473E-02
849.60	2.5091E-02
849.77	2.5783E-02
849.94	2.2685E-02
850.12	2.5867E-02
850.29	2.5170E-02
850.46	2.4732E-02
850.63	2.4350E-02
850.80	2.5051E-02
850.97	2.4907E-02
851.14	2.3784E-02
851.31	2.2862E-02
851.48	2.3950E-02
851.65	2.4296E-02
851.82	2.5126E-02
851.99	2.4752E-02
852.16	2.2643E-02
852.33	2.4259E-02
852.50	2.3630E-02
852.67	2.3771E-02
852.84	2.4121E-02
853.01	2.3388E-02
853.18	2.4016E-02
853.35	2.2827E-02
853.52	2.4751E-02
853.69	2.3258E-02
853.86	2.2320E-02
854.03	2.2119E-02
854.21	2.3482E-02
854.38	2.3045E-02
854.55	2.3614E-02
854.72	2.3781E-02
854.89	2.2119E-02
855.06	2.1019E-02
855.23	2.2689E-02
855.40	2.3787E-02
855.57	2.1807E-02
855.74	2.2297E-02
855.91	2.2719E-02
856.08	2.1792E-02
856.25	2.2880E-02
856.42	2.2550E-02
856.59	2.2530E-02
856.76	2.2941E-02
856.93	2.2782E-02
857.10	2.2703E-02
857.27	2.4168E-02
857.44	2.3206E-02
857.61	2.3174E-02
857.77	2.2072E-02
857.94	2.2208E-02
858.11	2.2038E-02
858.28	2.3904E-02
858.45	2.2049E-02
858.62	2.3159E-02
858.79	2.2556E-02
858.96	2.2664E-02
859.13	2.2780E-02
859.30	2.3624E-02
859.47	2.2440E-02
859.64	2.1201E-02
859.81	2.3487E-02
859.98	2.3597E-02
860.15	2.2765E-02
860.32	2.2181E-02
860.49	2.4843E-02
860.66	2.3193E-02
860.83	2.3502E-02
861.00	2.3196E-02
861.17	2.3395E-02
861.34	2.3601E-02
861.51	2.1362E-02
861.68	2.3599E-02
861.84	2.3077E-02
862.01	2.2144E-02
862.18	2.2522E-02
862.35	2.3186E-02
862.52	2.3124E-02
862.69	2.2471E-02
862.86	2.2921E-02
863.03	2.3292E-02
863.20	2.2785E-02
863.37	2.2873E-02
863.54	2.1643E-02
863.71	2.1644E-02
863.88	2.2271E-02
864.05	2.1960E-02
864.21	2.2722E-02
864.38	2.1133E-02
864.55	2.0637E-02
864.72	2.2864E-02
864.89	2.1623E-02
865.06	2.2611E-02
865.23	2.1371E-02
865.40	2.0519E-02
865.57	2.2522E-02
865.74	2.1655E-02
865.90	2.1888E-02
866.07	2.1757E-02
866.24	2.0202E-02
866.41	1.9895E-02
866.58	2.0448E-02
866.75	2.0642E-02
866.92	2.0753E-02
867.09	2.0693E-02
867.26	2.0787E-02
867.42	1.9650E-02
867.59	1.8864E-02
867.76	2.0876E-02
867.93	1.9955E-02
868.10	2.0441E-02
868.27	1.8425E-02
868.44	2.0437E-02
868.60	2.0884E-02
868.77	2.0591E-02
868.94	2.0072E-02
869.11	1.9924E-02
869.28	2.1014E-02
869.45	1.8693E-02
869.62	2.0500E-02
869.78	1.9939E-02
869.95	1.8861E-02
870.12	1.9520E-02
870.29	2.0216E-02
870.46	2.0504E-02
870.63	1.9436E-02
870.80	1.8513E-02
870.96	1.9423E-02
871.13	1.9153E-02
871.30	2.0272E-02
871.47	2.0372E-02
871.64	2.0178E-02
871.81	1.7516E-02
871.97	2.0806E-02
872.14	1.8277E-02
872.31	1.7829E-02
872.48	1.8828E-02
872.65	2.0155E-02
872.81	1.8992E-02
872.98	2.0480E-02
873.15	1.9996E-02
873.32	1.9950E-02
873.49	1.9074E-02
873.66	1.9914E-02
873.82	1.9303E-02
873.99	1.8577E-02
874.16	1.9621E-02
874.33	1.8779E-02
874.50	1.9822E-02
874.66	1.9064E-02
874.83	1.9249E-02
875.00	1.8991E-02
875.17	1.7224E-02
875.34	1.9829E-02
875.50	1.8672E-02
875.67	1.8278E-02
875.84	1.8693E-02
876.01	1.8173E-02
876.17	1.7521E-02
876.34	1.7544E-02
876.51	1.9669E-02
876.68	1.9082E-02
876.85	1.8654E-02
877.01	1.9245E-02
877.18	1.7785E-02
877.35	1.8212E-02
877.52	1.8107E-02
877.68	1.8784E-02
877.85	1.7802E-02
878.02	1.8287E-02
878.19	1.7809E-02
878.35	1.8261E-02
878.52	1.7992E-02
878.69	1.8293E-02
878.86	1.6937E-02
879.02	1.7593E-02
879.19	1.6460E-02
879.36	1.7017E-02
879.53	1.5461E-02
879.69	1.6856E-02
879.86	1.8296E-02
880.03	1.8042E-02
880.20	1.6663E-02
880.36	1.8187E-02
880.53	1.6304E-02
880.70	1.8294E-02
880.87	1.6913E-02
881.03	1.6871E-02
881.20	1.5211E-02
881.37	1.6519E-02
881.54	1.6979E-02
881.70	1.7772E-02
881.87	1.6195E-02
882.04	1.6314E-02
882.20	1.6453E-02
882.37	1.5076E-02
882.54	1.6859E-02
882.71	1.6787E-02
882.87	1.7848E-02
883.04	1.6377E-02
883.21	1.6290E-02
883.37	1.5810E-02
883.54	1.6454E-02
883.71	1.6036E-02
883.87	1.5386E-02
884.04	1.7400E-02
884.21	1.5957E-02
884.38	1.5392E-02
884.54	1.7516E-02
884.71	1.7551E-02
884.88	1.5891E-02
885.04	1.6317E-02
885.21	1.5428E-02
885.38	1.5452E-02
885.54	1.7857E-02
885.71	1.5629E-02
885.88	1.6386E-02
886.04	1.6008E-02
886.21	1.6012E-02
886.38	1.5355E-02
886.54	1.5552E-02
886.71	1.4740E-02
886.88	1.6728E-02
887.04	1.4017E-02
887.21	1.4942E-02
887.38	1.6099E-02
887.54	1.3836E-02
887.71	1.5428E-02
887.88	1.5551E-02
888.04	1.6440E-02
888.21	1.5554E-02
888.38	1.5965E-02
888.54	1.4913E-02
888.71	1.4495E-02
888.87	1.3577E-02
889.04	1.3577E-02
>>>>>End Processed Spectral Data<<<<<
