SpectraSuite Data File
++++++++++++++++++++++++++++++++++++
Date: Wed Jul 25 11:42:16 HST 2007
User: guest
Dark Spectrum Present: Yes
Reference Spectrum Present: No
Number of Sampled Component Spectra: 1
Spectrometers: USB4E01242
Integration Time (usec): 20000 (USB4E01242)
Spectra Averaged: 1 (USB4E01242)
Boxcar Smoothing: 10 (USB4E01242)
Correct for Electrical Dark: No (USB4E01242)
Strobe/Lamp Enabled: No (USB4E01242)
Correct for Detector Non-linearity: No (USB4E01242)
Correct for Stray Light: No (USB4E01242)
Number of Pixels in Processed Spectrum: 3648
>>>>>Begin Processed Spectral Data<<<<<
177.33	0.0000E00
177.55	0.0000E00
177.77	0.0000E00
177.99	0.0000E00
178.21	0.0000E00
178.43	0.0000E00
178.64	-0.0000E00
178.86	-0.0000E00
179.08	0.0000E00
179.30	0.0000E00
179.52	0.0000E00
179.74	0.0000E00
179.96	0.0000E00
180.18	0.0000E00
180.39	-0.0000E00
180.61	0.0000E00
180.83	0.0000E00
181.05	-0.0000E00
181.27	0.0000E00
181.49	0.0000E00
181.71	0.0000E00
181.92	-0.0000E00
182.14	0.0000E00
182.36	0.0000E00
182.58	-0.0000E00
182.80	0.0000E00
183.02	0.0000E00
183.23	0.0000E00
183.45	-0.0000E00
183.67	-0.0000E00
183.89	-0.0000E00
184.11	0.0000E00
184.33	-0.0000E00
184.55	0.0000E00
184.76	0.0000E00
184.98	-0.0000E00
185.20	-0.0000E00
185.42	0.0000E00
185.64	-0.0000E00
185.86	0.0000E00
186.07	0.0000E00
186.29	-0.0000E00
186.51	-0.0000E00
186.73	0.0000E00
186.95	0.0000E00
187.17	0.0000E00
187.38	0.0000E00
187.60	0.0000E00
187.82	-0.0000E00
188.04	0.0000E00
188.26	-0.0000E00
188.47	-0.0000E00
188.69	0.0000E00
188.91	0.0000E00
189.13	0.0000E00
189.35	-0.0000E00
189.57	0.0000E00
189.78	0.0000E00
190.00	-0.0000E00
190.22	-0.0000E00
190.44	0.0000E00
190.66	0.0000E00
190.87	0.0000E00
191.09	-0.0000E00
191.31	-0.0000E00
191.53	-0.0000E00
191.75	0.0000E00
191.97	0.0000E00
192.18	0.0000E00
192.40	0.0000E00
192.62	0.0000E00
192.84	0.0000E00
193.06	-0.0000E00
193.27	-0.0000E00
193.49	0.0000E00
193.71	0.0000E00
193.93	-0.0000E00
194.15	-0.0000E00
194.36	0.0000E00
194.58	0.0000E00
194.80	0.0000E00
195.02	0.0000E00
195.23	0.0000E00
195.45	-0.0000E00
195.67	0.0000E00
195.89	0.0000E00
196.11	0.0000E00
196.32	0.0000E00
196.54	0.0000E00
196.76	-0.0000E00
196.98	0.0000E00
197.20	0.0000E00
197.41	0.0000E00
197.63	0.0000E00
197.85	-0.0000E00
198.07	-0.0000E00
198.28	0.0000E00
198.50	0.0000E00
198.72	-0.0000E00
198.94	0.0000E00
199.16	-0.0000E00
199.37	-0.0000E00
199.59	0.0000E00
199.81	-0.0000E00
200.03	0.0000E00
200.24	0.0000E00
200.46	-0.0000E00
200.68	0.0000E00
200.90	-0.0000E00
201.11	-0.0000E00
201.33	-0.0000E00
201.55	-0.0000E00
201.77	0.0000E00
201.98	0.0000E00
202.20	0.0000E00
202.42	0.0000E00
202.64	-0.0000E00
202.86	-0.0000E00
203.07	0.0000E00
203.29	-0.0000E00
203.51	0.0000E00
203.73	0.0000E00
203.94	0.0000E00
204.16	0.0000E00
204.38	0.0000E00
204.60	0.0000E00
204.81	0.0000E00
205.03	-0.0000E00
205.25	0.0000E00
205.46	0.0000E00
205.68	-0.0000E00
205.90	-0.0000E00
206.12	-0.0000E00
206.33	-0.0000E00
206.55	0.0000E00
206.77	-0.0000E00
206.99	-0.0000E00
207.20	0.0000E00
207.42	0.0000E00
207.64	0.0000E00
207.86	0.0000E00
208.07	0.0000E00
208.29	0.0000E00
208.51	0.0000E00
208.72	0.0000E00
208.94	0.0000E00
209.16	0.0000E00
209.38	-0.0000E00
209.59	0.0000E00
209.81	0.0000E00
210.03	-0.0000E00
210.25	-0.0000E00
210.46	-0.0000E00
210.68	-0.0000E00
210.90	-0.0000E00
211.11	0.0000E00
211.33	-0.0000E00
211.55	0.0000E00
211.77	-0.0000E00
211.98	0.0000E00
212.20	0.0000E00
212.42	0.0000E00
212.63	0.0000E00
212.85	0.0000E00
213.07	-0.0000E00
213.29	0.0000E00
213.50	-0.0000E00
213.72	0.0000E00
213.94	0.0000E00
214.15	0.0000E00
214.37	0.0000E00
214.59	-0.0000E00
214.80	0.0000E00
215.02	0.0000E00
215.24	0.0000E00
215.45	0.0000E00
215.67	0.0000E00
215.89	0.0000E00
216.11	-0.0000E00
216.32	0.0000E00
216.54	0.0000E00
216.76	0.0000E00
216.97	0.0000E00
217.19	0.0000E00
217.41	0.0000E00
217.62	0.0000E00
217.84	0.0000E00
218.06	0.0000E00
218.27	0.0000E00
218.49	0.0000E00
218.71	0.0000E00
218.92	0.0000E00
219.14	-0.0000E00
219.36	-0.0000E00
219.57	-0.0000E00
219.79	0.0000E00
220.01	0.0000E00
220.22	0.0000E00
220.44	-0.0000E00
220.66	-0.0000E00
220.88	0.0000E00
221.09	0.0000E00
221.31	-0.0000E00
221.53	-0.0000E00
221.74	0.0000E00
221.96	-0.0000E00
222.17	0.0000E00
222.39	0.0000E00
222.61	-0.0000E00
222.82	0.0000E00
223.04	0.0000E00
223.26	0.0000E00
223.47	-0.0000E00
223.69	0.0000E00
223.91	0.0000E00
224.12	0.0000E00
224.34	-0.0000E00
224.56	0.0000E00
224.77	0.0000E00
224.99	0.0000E00
225.21	0.0000E00
225.42	0.0000E00
225.64	0.0000E00
225.86	-0.0000E00
226.07	0.0000E00
226.29	0.0000E00
226.50	0.0000E00
226.72	0.0000E00
226.94	0.0000E00
227.15	0.0000E00
227.37	0.0000E00
227.59	-0.0000E00
227.80	0.0000E00
228.02	0.0000E00
228.24	0.0000E00
228.45	0.0000E00
228.67	-0.0000E00
228.88	0.0000E00
229.10	-0.0000E00
229.32	-0.0000E00
229.53	0.0000E00
229.75	0.0000E00
229.97	0.0000E00
230.18	0.0000E00
230.40	0.0000E00
230.61	0.0000E00
230.83	0.0000E00
231.05	0.0000E00
231.26	0.0000E00
231.48	0.0000E00
231.70	0.0000E00
231.91	-0.0000E00
232.13	-0.0000E00
232.34	0.0000E00
232.56	0.0000E00
232.78	-0.0000E00
232.99	0.0000E00
233.21	0.0000E00
233.42	0.0000E00
233.64	0.0000E00
233.86	0.0000E00
234.07	-0.0000E00
234.29	0.0000E00
234.50	-0.0000E00
234.72	0.0000E00
234.94	-0.0000E00
235.15	0.0000E00
235.37	-0.0000E00
235.58	0.0000E00
235.80	0.0000E00
236.02	0.0000E00
236.23	0.0000E00
236.45	-0.0000E00
236.66	-0.0000E00
236.88	0.0000E00
237.10	0.0000E00
237.31	0.0000E00
237.53	0.0000E00
237.74	0.0000E00
237.96	0.0000E00
238.17	-0.0000E00
238.39	0.0000E00
238.61	0.0000E00
238.82	-0.0000E00
239.04	0.0000E00
239.25	0.0000E00
239.47	-0.0000E00
239.69	-0.0000E00
239.90	-0.0000E00
240.12	0.0000E00
240.33	0.0000E00
240.55	0.0000E00
240.76	0.0000E00
240.98	-0.0000E00
241.20	0.0000E00
241.41	0.0000E00
241.63	-0.0000E00
241.84	-0.0000E00
242.06	0.0000E00
242.27	-0.0000E00
242.49	-0.0000E00
242.70	0.0000E00
242.92	0.0000E00
243.14	0.0000E00
243.35	-0.0000E00
243.57	0.0000E00
243.78	-0.0000E00
244.00	0.0000E00
244.21	-0.0000E00
244.43	0.0000E00
244.64	0.0000E00
244.86	0.0000E00
245.08	-0.0000E00
245.29	0.0000E00
245.51	0.0000E00
245.72	-0.0000E00
245.94	0.0000E00
246.15	0.0000E00
246.37	0.0000E00
246.58	-0.0000E00
246.80	0.0000E00
247.01	0.0000E00
247.23	-0.0000E00
247.45	0.0000E00
247.66	0.0000E00
247.88	0.0000E00
248.09	0.0000E00
248.31	-0.0000E00
248.52	-0.0000E00
248.74	-0.0000E00
248.95	0.0000E00
249.17	0.0000E00
249.38	-0.0000E00
249.60	0.0000E00
249.81	0.0000E00
250.03	0.0000E00
250.24	-0.0000E00
250.46	0.0000E00
250.67	-0.0000E00
250.89	0.0000E00
251.10	-0.0000E00
251.32	0.0000E00
251.53	-0.0000E00
251.75	-0.0000E00
251.97	0.0000E00
252.18	0.0000E00
252.40	-0.0000E00
252.61	0.0000E00
252.83	0.0000E00
253.04	0.0000E00
253.26	0.0000E00
253.47	-0.0000E00
253.69	0.0000E00
253.90	0.0000E00
254.12	-0.0000E00
254.33	-0.0000E00
254.55	0.0000E00
254.76	0.0000E00
254.98	0.0000E00
255.19	-0.0000E00
255.41	0.0000E00
255.62	0.0000E00
255.84	-0.0000E00
256.05	-0.0000E00
256.27	0.0000E00
256.48	0.0000E00
256.70	0.0000E00
256.91	-0.0000E00
257.13	0.0000E00
257.34	0.0000E00
257.55	0.0000E00
257.77	0.0000E00
257.98	0.0000E00
258.20	0.0000E00
258.41	0.0000E00
258.63	0.0000E00
258.84	-0.0000E00
259.06	0.0000E00
259.27	0.0000E00
259.49	0.0000E00
259.70	0.0000E00
259.92	-0.0000E00
260.13	0.0000E00
260.35	0.0000E00
260.56	-0.0000E00
260.78	0.0000E00
260.99	-0.0000E00
261.21	0.0000E00
261.42	-0.0000E00
261.63	-0.0000E00
261.85	-0.0000E00
262.06	-0.0000E00
262.28	0.0000E00
262.49	-0.0000E00
262.71	0.0000E00
262.92	-0.0000E00
263.14	0.0000E00
263.35	-0.0000E00
263.57	0.0000E00
263.78	0.0000E00
264.00	0.0000E00
264.21	0.0000E00
264.42	-0.0000E00
264.64	-0.0000E00
264.85	0.0000E00
265.07	-0.0000E00
265.28	0.0000E00
265.50	-0.0000E00
265.71	0.0000E00
265.93	-0.0000E00
266.14	-0.0000E00
266.35	0.0000E00
266.57	0.0000E00
266.78	0.0000E00
267.00	0.0000E00
267.21	0.0000E00
267.43	0.0000E00
267.64	-0.0000E00
267.85	-0.0000E00
268.07	0.0000E00
268.28	0.0000E00
268.50	0.0000E00
268.71	0.0000E00
268.93	0.0000E00
269.14	0.0000E00
269.35	0.0000E00
269.57	0.0000E00
269.78	0.0000E00
270.00	0.0000E00
270.21	0.0000E00
270.43	0.0000E00
270.64	0.0000E00
270.85	0.0000E00
271.07	-0.0000E00
271.28	-0.0000E00
271.50	-0.0000E00
271.71	0.0000E00
271.92	0.0000E00
272.14	0.0000E00
272.35	0.0000E00
272.57	0.0000E00
272.78	0.0000E00
272.99	0.0000E00
273.21	-0.0000E00
273.42	0.0000E00
273.64	0.0000E00
273.85	0.0000E00
274.07	0.0000E00
274.28	0.0000E00
274.49	0.0000E00
274.71	0.0000E00
274.92	0.0000E00
275.13	0.0000E00
275.35	0.0000E00
275.56	-0.0000E00
275.78	0.0000E00
275.99	0.0000E00
276.20	0.0000E00
276.42	-0.0000E00
276.63	-0.0000E00
276.85	-0.0000E00
277.06	0.0000E00
277.27	0.0000E00
277.49	0.0000E00
277.70	0.0000E00
277.92	0.0000E00
278.13	0.0000E00
278.34	0.0000E00
278.56	0.0000E00
278.77	0.0000E00
278.98	0.0000E00
279.20	0.0000E00
279.41	-0.0000E00
279.63	0.0000E00
279.84	-0.0000E00
280.05	0.0000E00
280.27	-0.0000E00
280.48	0.0000E00
280.69	-0.0000E00
280.91	-0.0000E00
281.12	0.0000E00
281.33	0.0000E00
281.55	-0.0000E00
281.76	0.0000E00
281.98	0.0000E00
282.19	-0.0000E00
282.40	0.0000E00
282.62	0.0000E00
282.83	-0.0000E00
283.04	-0.0000E00
283.26	0.0000E00
283.47	0.0000E00
283.68	0.0000E00
283.90	-0.0000E00
284.11	0.0000E00
284.32	0.0000E00
284.54	-0.0000E00
284.75	0.0000E00
284.96	0.0000E00
285.18	-0.0000E00
285.39	0.0000E00
285.60	0.0000E00
285.82	-0.0000E00
286.03	0.0000E00
286.24	0.0000E00
286.46	0.0000E00
286.67	0.0000E00
286.88	0.0000E00
287.10	0.0000E00
287.31	0.0000E00
287.52	0.0000E00
287.74	-0.0000E00
287.95	0.0000E00
288.16	0.0000E00
288.38	0.0000E00
288.59	-0.0000E00
288.80	0.0000E00
289.02	0.0000E00
289.23	-0.0000E00
289.44	0.0000E00
289.66	0.0000E00
289.87	0.0000E00
290.08	0.0000E00
290.30	-0.0000E00
290.51	-0.0000E00
290.72	0.0000E00
290.94	0.0000E00
291.15	-0.0000E00
291.36	0.0000E00
291.57	0.0000E00
291.79	0.0000E00
292.00	-0.0000E00
292.21	0.0000E00
292.43	-0.0000E00
292.64	0.0000E00
292.85	0.0000E00
293.07	0.0000E00
293.28	0.0000E00
293.49	0.0000E00
293.70	0.0000E00
293.92	0.0000E00
294.13	0.0000E00
294.34	0.0000E00
294.56	0.0000E00
294.77	0.0000E00
294.98	0.0000E00
295.20	0.0000E00
295.41	-0.0000E00
295.62	0.0000E00
295.83	-0.0000E00
296.05	0.0000E00
296.26	-0.0000E00
296.47	0.0000E00
296.69	0.0000E00
296.90	0.0000E00
297.11	0.0000E00
297.32	-0.0000E00
297.54	0.0000E00
297.75	-0.0000E00
297.96	0.0000E00
298.17	0.0000E00
298.39	0.0000E00
298.60	0.0000E00
298.81	0.0000E00
299.03	0.0000E00
299.24	0.0000E00
299.45	-0.0000E00
299.66	0.0000E00
299.88	0.0000E00
300.09	9.4273E-04
300.30	5.0335E-04
300.51	1.1577E-03
300.73	3.4511E-04
300.94	6.2562E-04
301.15	9.0208E-04
301.36	2.3484E-04
301.58	5.5696E-04
301.79	1.5539E-03
302.00	8.1115E-04
302.21	4.5851E-04
302.43	1.0160E-03
302.64	4.8090E-04
302.85	1.1199E-03
303.06	1.1157E-04
303.28	9.6597E-04
303.49	3.5052E-04
303.70	1.4820E-03
303.91	4.4829E-04
304.13	2.8186E-04
304.34	5.6398E-04
304.55	1.5951E-03
304.76	4.3962E-05
304.98	3.9550E-04
305.19	1.3414E-03
305.40	3.4002E-04
305.61	1.3801E-03
305.82	7.6229E-04
306.04	1.3014E-03
306.25	3.5187E-04
306.46	1.5091E-03
306.67	6.4126E-04
306.89	1.0764E-03
307.10	1.4794E-03
307.31	1.6235E-03
307.52	1.1838E-03
307.74	2.1934E-03
307.95	2.0649E-03
308.16	4.6746E-04
308.37	1.8439E-03
308.58	1.3913E-03
308.80	2.0201E-03
309.01	1.8365E-03
309.22	5.4839E-04
309.43	9.7188E-04
309.64	1.7980E-03
309.86	2.0839E-03
310.07	1.2579E-03
310.28	1.8439E-03
310.49	2.0680E-03
310.70	1.2798E-03
310.92	1.8930E-03
311.13	1.3088E-03
311.34	1.7911E-03
311.55	1.9335E-03
311.76	1.5328E-03
311.98	1.9978E-03
312.19	2.0379E-03
312.40	1.2640E-03
312.61	1.5647E-03
312.82	1.9108E-03
313.04	1.1666E-03
313.25	2.1338E-03
313.46	1.5376E-03
313.67	1.5887E-03
313.88	1.6548E-03
314.10	1.5054E-03
314.31	1.5005E-03
314.52	1.5575E-03
314.73	1.6073E-03
314.94	1.7093E-03
315.16	2.4753E-03
315.37	2.5386E-03
315.58	2.1235E-03
315.79	2.2428E-03
316.00	2.2816E-03
316.21	2.3104E-03
316.43	1.4479E-03
316.64	1.7311E-03
316.85	1.3383E-03
317.06	2.0425E-03
317.27	2.2693E-03
317.48	1.7278E-03
317.70	1.8525E-03
317.91	1.9486E-03
318.12	2.0783E-03
318.33	1.6637E-03
318.54	1.8989E-03
318.75	2.5150E-03
318.97	2.3661E-03
319.18	2.2618E-03
319.39	2.1796E-03
319.60	2.1020E-03
319.81	2.4367E-03
320.02	2.2156E-03
320.24	2.1247E-03
320.45	2.2049E-03
320.66	1.8836E-03
320.87	2.2198E-03
321.08	2.5337E-03
321.29	2.3357E-03
321.50	1.9837E-03
321.72	1.7782E-03
321.93	2.3850E-03
322.14	2.4430E-03
322.35	2.2919E-03
322.56	2.6855E-03
322.77	3.0288E-03
322.98	2.4773E-03
323.20	2.7817E-03
323.41	2.1493E-03
323.62	2.0824E-03
323.83	2.2658E-03
324.04	1.9161E-03
324.25	1.8105E-03
324.46	2.3199E-03
324.67	2.1571E-03
324.89	1.9769E-03
325.10	2.0565E-03
325.31	2.6129E-03
325.52	2.8138E-03
325.73	2.3605E-03
325.94	2.5712E-03
326.15	1.9478E-03
326.36	2.8341E-03
326.58	3.6612E-03
326.79	3.1426E-03
327.00	1.6668E-03
327.21	2.8311E-03
327.42	2.8366E-03
327.63	2.9783E-03
327.84	3.0150E-03
328.05	3.2782E-03
328.26	2.5731E-03
328.48	3.0124E-03
328.69	4.2272E-03
328.90	3.2135E-03
329.11	3.3252E-03
329.32	3.3834E-03
329.53	2.6793E-03
329.74	3.3248E-03
329.95	3.3203E-03
330.16	3.0548E-03
330.37	3.1605E-03
330.59	3.5349E-03
330.80	3.9125E-03
331.01	3.9160E-03
331.22	3.8932E-03
331.43	3.4515E-03
331.64	2.8796E-03
331.85	3.9440E-03
332.06	3.7653E-03
332.27	3.4177E-03
332.48	4.4596E-03
332.69	3.3542E-03
332.91	4.0685E-03
333.12	3.4908E-03
333.33	4.9039E-03
333.54	3.3711E-03
333.75	2.6020E-03
333.96	3.3485E-03
334.17	2.7222E-03
334.38	3.5091E-03
334.59	4.7416E-03
334.80	3.2693E-03
335.01	3.3664E-03
335.22	3.1754E-03
335.43	3.3980E-03
335.64	3.6177E-03
335.86	4.3582E-03
336.07	3.5650E-03
336.28	2.5124E-03
336.49	4.6259E-03
336.70	3.2655E-03
336.91	3.6152E-03
337.12	3.1993E-03
337.33	3.6185E-03
337.54	3.2585E-03
337.75	3.1673E-03
337.96	3.8064E-03
338.17	3.8302E-03
338.38	3.3793E-03
338.59	3.8439E-03
338.80	2.5907E-03
339.01	4.3042E-03
339.22	4.1880E-03
339.43	4.2040E-03
339.65	4.0661E-03
339.86	3.4657E-03
340.07	3.6219E-03
340.28	4.2386E-03
340.49	3.3906E-03
340.70	4.0053E-03
340.91	3.5726E-03
341.12	3.3310E-03
341.33	4.1275E-03
341.54	4.2136E-03
341.75	3.5792E-03
341.96	3.8374E-03
342.17	4.2732E-03
342.38	3.3433E-03
342.59	3.5730E-03
342.80	3.7186E-03
343.01	4.2289E-03
343.22	4.0614E-03
343.43	3.5379E-03
343.64	3.7371E-03
343.85	3.5687E-03
344.06	3.6198E-03
344.27	4.2364E-03
344.48	5.0792E-03
344.69	4.0275E-03
344.90	4.0677E-03
345.11	4.2020E-03
345.32	3.9391E-03
345.53	3.0493E-03
345.74	4.3999E-03
345.95	3.3116E-03
346.16	3.8878E-03
346.37	4.0475E-03
346.58	4.2171E-03
346.79	3.7329E-03
347.00	4.8546E-03
347.21	5.0377E-03
347.42	4.0122E-03
347.63	3.3338E-03
347.84	4.3430E-03
348.05	4.7179E-03
348.26	4.0108E-03
348.47	4.4722E-03
348.68	4.1390E-03
348.89	3.1035E-03
349.10	4.2951E-03
349.31	5.3607E-03
349.52	3.8955E-03
349.73	4.3632E-03
349.94	4.5089E-03
350.15	3.8944E-03
350.36	4.8900E-03
350.57	4.7715E-03
350.78	4.9926E-03
350.99	4.9925E-03
351.20	4.5904E-03
351.41	5.1269E-03
351.62	4.2417E-03
351.83	4.2878E-03
352.04	4.3962E-03
352.25	4.5835E-03
352.46	4.2981E-03
352.67	4.2205E-03
352.88	4.9338E-03
353.09	3.3311E-03
353.30	4.0450E-03
353.51	4.5317E-03
353.72	5.3430E-03
353.93	4.0801E-03
354.14	3.9928E-03
354.35	4.9597E-03
354.56	4.4814E-03
354.77	5.6224E-03
354.98	4.0928E-03
355.19	4.5581E-03
355.39	4.2638E-03
355.60	4.1827E-03
355.81	4.6110E-03
356.02	5.3722E-03
356.23	3.9068E-03
356.44	3.4670E-03
356.65	5.2935E-03
356.86	4.5600E-03
357.07	4.2931E-03
357.28	4.9859E-03
357.49	4.7728E-03
357.70	5.1678E-03
357.91	3.8776E-03
358.12	3.6429E-03
358.33	4.5248E-03
358.54	4.9834E-03
358.75	4.4413E-03
358.96	4.7846E-03
359.16	3.3654E-03
359.37	5.2720E-03
359.58	4.7969E-03
359.79	4.1770E-03
360.00	4.5467E-03
360.21	4.9632E-03
360.42	4.1627E-03
360.63	5.7000E-03
360.84	5.7689E-03
361.05	3.9276E-03
361.26	4.4444E-03
361.47	5.6614E-03
361.68	4.7964E-03
361.88	4.9260E-03
362.09	4.6075E-03
362.30	5.4421E-03
362.51	4.5530E-03
362.72	5.5159E-03
362.93	5.0862E-03
363.14	5.4464E-03
363.35	5.0731E-03
363.56	4.6364E-03
363.77	5.4223E-03
363.98	5.3851E-03
364.18	6.2005E-03
364.39	5.8259E-03
364.60	5.5271E-03
364.81	5.8927E-03
365.02	5.6131E-03
365.23	5.9645E-03
365.44	5.7513E-03
365.65	5.3663E-03
365.86	4.7655E-03
366.07	5.9712E-03
366.27	5.7856E-03
366.48	6.1080E-03
366.69	5.6834E-03
366.90	5.7508E-03
367.11	5.6461E-03
367.32	5.6829E-03
367.53	5.6841E-03
367.74	5.0070E-03
367.95	5.0513E-03
368.15	5.7611E-03
368.36	5.7949E-03
368.57	4.7693E-03
368.78	6.1321E-03
368.99	5.6096E-03
369.20	5.1647E-03
369.41	6.6214E-03
369.62	5.7852E-03
369.82	6.6178E-03
370.03	5.4014E-03
370.24	6.4307E-03
370.45	5.4322E-03
370.66	4.8497E-03
370.87	5.1930E-03
371.08	5.2024E-03
371.28	5.3104E-03
371.49	5.4057E-03
371.70	5.2102E-03
371.91	5.0754E-03
372.12	4.7935E-03
372.33	5.0995E-03
372.54	5.3146E-03
372.74	5.3979E-03
372.95	4.2848E-03
373.16	5.6300E-03
373.37	5.4918E-03
373.58	4.5149E-03
373.79	5.4721E-03
374.00	4.6960E-03
374.20	5.8664E-03
374.41	5.7829E-03
374.62	4.9238E-03
374.83	5.0498E-03
375.04	5.4994E-03
375.25	5.6371E-03
375.45	4.4542E-03
375.66	5.8474E-03
375.87	5.5072E-03
376.08	6.3721E-03
376.29	6.2655E-03
376.50	5.9370E-03
376.70	5.3420E-03
376.91	5.8593E-03
377.12	5.8553E-03
377.33	4.9363E-03
377.54	5.2771E-03
377.75	6.3054E-03
377.95	5.6543E-03
378.16	5.6983E-03
378.37	5.1063E-03
378.58	6.0296E-03
378.79	4.9626E-03
379.00	6.1014E-03
379.20	5.2417E-03
379.41	5.7823E-03
379.62	5.8715E-03
379.83	5.3850E-03
380.04	5.4546E-03
380.24	5.5885E-03
380.45	4.3144E-03
380.66	4.9728E-03
380.87	5.4104E-03
381.08	5.5498E-03
381.28	4.7289E-03
381.49	5.3569E-03
381.70	4.8206E-03
381.91	5.1071E-03
382.12	5.4805E-03
382.32	4.8825E-03
382.53	5.6435E-03
382.74	4.6922E-03
382.95	5.1443E-03
383.16	5.4720E-03
383.36	4.2916E-03
383.57	5.3172E-03
383.78	5.6693E-03
383.99	4.8115E-03
384.20	5.1155E-03
384.40	5.2407E-03
384.61	6.0653E-03
384.82	6.1769E-03
385.03	5.9646E-03
385.23	5.8936E-03
385.44	5.5977E-03
385.65	6.2396E-03
385.86	5.3238E-03
386.07	7.0560E-03
386.27	4.9038E-03
386.48	5.5174E-03
386.69	6.1505E-03
386.90	4.5842E-03
387.10	5.2441E-03
387.31	6.1889E-03
387.52	5.3531E-03
387.73	6.0052E-03
387.94	6.4131E-03
388.14	5.2996E-03
388.35	5.8465E-03
388.56	7.3149E-03
388.77	6.4263E-03
388.97	6.6992E-03
389.18	6.8744E-03
389.39	6.2593E-03
389.60	6.6725E-03
389.80	7.2623E-03
390.01	6.9853E-03
390.22	6.8233E-03
390.43	5.8779E-03
390.63	6.2845E-03
390.84	6.2991E-03
391.05	7.1769E-03
391.26	6.3990E-03
391.46	6.1084E-03
391.67	6.0872E-03
391.88	5.1485E-03
392.09	5.2399E-03
392.29	6.4787E-03
392.50	5.6308E-03
392.71	6.1228E-03
392.92	6.3371E-03
393.12	6.2547E-03
393.33	6.6774E-03
393.54	5.8712E-03
393.74	5.2886E-03
393.95	5.6409E-03
394.16	6.7597E-03
394.37	6.1805E-03
394.57	6.0898E-03
394.78	6.6468E-03
394.99	6.5033E-03
395.19	6.0644E-03
395.40	6.0538E-03
395.61	6.0419E-03
395.82	7.0327E-03
396.02	6.3382E-03
396.23	7.0611E-03
396.44	7.3206E-03
396.65	6.1935E-03
396.85	7.4335E-03
397.06	7.0871E-03
397.27	7.1115E-03
397.47	7.6022E-03
397.68	7.2678E-03
397.89	6.7703E-03
398.09	6.6718E-03
398.30	6.9997E-03
398.51	6.6514E-03
398.72	7.1202E-03
398.92	7.9252E-03
399.13	7.7727E-03
399.34	8.6985E-03
399.54	8.7465E-03
399.75	8.4394E-03
399.96	7.3783E-03
400.16	7.5941E-03
400.37	8.2057E-03
400.58	8.0847E-03
400.78	8.5525E-03
400.99	7.6166E-03
401.20	8.8860E-03
401.41	8.7272E-03
401.61	7.8057E-03
401.82	8.5337E-03
402.03	8.0087E-03
402.23	8.0304E-03
402.44	8.7644E-03
402.65	8.2441E-03
402.85	8.4089E-03
403.06	8.3077E-03
403.27	8.2994E-03
403.47	8.5763E-03
403.68	8.0175E-03
403.89	8.7968E-03
404.09	8.3849E-03
404.30	7.6769E-03
404.51	8.5609E-03
404.71	8.6214E-03
404.92	8.9892E-03
405.13	7.6084E-03
405.33	8.0106E-03
405.54	8.0115E-03
405.75	8.5290E-03
405.95	8.4569E-03
406.16	7.2193E-03
406.37	8.4124E-03
406.57	8.3713E-03
406.78	8.8712E-03
406.99	8.6191E-03
407.19	9.0725E-03
407.40	9.1298E-03
407.60	8.9575E-03
407.81	8.8898E-03
408.02	8.1344E-03
408.22	8.1505E-03
408.43	9.1468E-03
408.64	8.7289E-03
408.84	8.7143E-03
409.05	7.6266E-03
409.26	9.2896E-03
409.46	8.9932E-03
409.67	8.7583E-03
409.87	9.1852E-03
410.08	8.5606E-03
410.29	9.5277E-03
410.49	8.2938E-03
410.70	9.2107E-03
410.91	8.7564E-03
411.11	9.4573E-03
411.32	8.9897E-03
411.52	8.2363E-03
411.73	9.3845E-03
411.94	9.1204E-03
412.14	9.6146E-03
412.35	8.8885E-03
412.56	9.6189E-03
412.76	9.6123E-03
412.97	8.7038E-03
413.17	9.4461E-03
413.38	9.9798E-03
413.59	9.0936E-03
413.79	9.2710E-03
414.00	9.7474E-03
414.20	1.0106E-02
414.41	8.9128E-03
414.62	1.0015E-02
414.82	9.3120E-03
415.03	8.6075E-03
415.23	9.8910E-03
415.44	9.1196E-03
415.65	9.7473E-03
415.85	9.0508E-03
416.06	1.0074E-02
416.26	9.8187E-03
416.47	9.7723E-03
416.68	1.0298E-02
416.88	1.0634E-02
417.09	8.7270E-03
417.29	9.7187E-03
417.50	1.0106E-02
417.71	9.9029E-03
417.91	9.6738E-03
418.12	9.7357E-03
418.32	1.0215E-02
418.53	1.0273E-02
418.73	9.1240E-03
418.94	9.3663E-03
419.15	9.2435E-03
419.35	9.9651E-03
419.56	9.6690E-03
419.76	8.6409E-03
419.97	1.0407E-02
420.17	9.3324E-03
420.38	8.4625E-03
420.59	9.8912E-03
420.79	1.0371E-02
421.00	9.1826E-03
421.20	8.5913E-03
421.41	9.3813E-03
421.61	9.2766E-03
421.82	9.8494E-03
422.02	9.5279E-03
422.23	8.1599E-03
422.44	1.0279E-02
422.64	9.1006E-03
422.85	9.4899E-03
423.05	9.7699E-03
423.26	9.7903E-03
423.46	9.6729E-03
423.67	9.1468E-03
423.87	9.4864E-03
424.08	9.2607E-03
424.29	9.4045E-03
424.49	1.0182E-02
424.70	8.7678E-03
424.90	9.9176E-03
425.11	1.0048E-02
425.31	9.9347E-03
425.52	1.0080E-02
425.72	9.3339E-03
425.93	9.6043E-03
426.13	9.3218E-03
426.34	9.2582E-03
426.54	9.6447E-03
426.75	9.4476E-03
426.95	9.6576E-03
427.16	9.7375E-03
427.36	9.4376E-03
427.57	8.6517E-03
427.78	8.9367E-03
427.98	8.8912E-03
428.19	9.3439E-03
428.39	8.7670E-03
428.60	8.7743E-03
428.80	8.7990E-03
429.01	9.6467E-03
429.21	8.0858E-03
429.42	9.7129E-03
429.62	9.5436E-03
429.83	8.9827E-03
430.03	8.2608E-03
430.24	9.2928E-03
430.44	8.3716E-03
430.65	9.1431E-03
430.85	9.3692E-03
431.06	8.8442E-03
431.26	9.3775E-03
431.47	8.3404E-03
431.67	1.0207E-02
431.88	9.4823E-03
432.08	9.7415E-03
432.29	9.9069E-03
432.49	9.2190E-03
432.70	9.3312E-03
432.90	1.0320E-02
433.11	9.9608E-03
433.31	8.7059E-03
433.52	9.9564E-03
433.72	9.5580E-03
433.93	9.8059E-03
434.13	9.8210E-03
434.34	1.0838E-02
434.54	9.5314E-03
434.74	1.0018E-02
434.95	1.0082E-02
435.15	1.0038E-02
435.36	1.0141E-02
435.56	9.5229E-03
435.77	1.0246E-02
435.97	9.6943E-03
436.18	1.1378E-02
436.38	1.0604E-02
436.59	9.8777E-03
436.79	1.0776E-02
437.00	1.0808E-02
437.20	1.0156E-02
437.41	9.8642E-03
437.61	1.0774E-02
437.81	1.0359E-02
438.02	1.0149E-02
438.22	1.0490E-02
438.43	9.9194E-03
438.63	1.1103E-02
438.84	1.0332E-02
439.04	1.0223E-02
439.25	1.0512E-02
439.45	9.8754E-03
439.66	9.9920E-03
439.86	1.0197E-02
440.06	1.1228E-02
440.27	1.0110E-02
440.47	9.7337E-03
440.68	1.0885E-02
440.88	1.0650E-02
441.09	1.1004E-02
441.29	1.1142E-02
441.49	1.0776E-02
441.70	1.1577E-02
441.90	1.0655E-02
442.11	1.1324E-02
442.31	1.1660E-02
442.52	1.1226E-02
442.72	1.0393E-02
442.92	1.0466E-02
443.13	1.1205E-02
443.33	1.0461E-02
443.54	1.0894E-02
443.74	1.1098E-02
443.95	1.1440E-02
444.15	1.1100E-02
444.35	1.1685E-02
444.56	1.0876E-02
444.76	1.0543E-02
444.97	1.2360E-02
445.17	1.1602E-02
445.37	1.2328E-02
445.58	1.0671E-02
445.78	1.1232E-02
445.99	1.0635E-02
446.19	1.0718E-02
446.39	1.0866E-02
446.60	1.0491E-02
446.80	1.0700E-02
447.01	1.1355E-02
447.21	1.2042E-02
447.41	1.0764E-02
447.62	1.1847E-02
447.82	1.1191E-02
448.03	1.1811E-02
448.23	1.1628E-02
448.43	1.1591E-02
448.64	1.2044E-02
448.84	1.1790E-02
449.05	1.1225E-02
449.25	1.1951E-02
449.45	1.1327E-02
449.66	1.1702E-02
449.86	1.1571E-02
450.07	1.1081E-02
450.27	1.1928E-02
450.47	1.1348E-02
450.68	1.1918E-02
450.88	1.1225E-02
451.08	1.1687E-02
451.29	1.1515E-02
451.49	1.2077E-02
451.70	1.1808E-02
451.90	1.2309E-02
452.10	1.2035E-02
452.31	1.1054E-02
452.51	1.1881E-02
452.71	1.1616E-02
452.92	1.1816E-02
453.12	1.2282E-02
453.32	1.1968E-02
453.53	1.1011E-02
453.73	1.1037E-02
453.93	1.1031E-02
454.14	1.2083E-02
454.34	1.2036E-02
454.55	1.2136E-02
454.75	1.2020E-02
454.95	1.0927E-02
455.16	1.2760E-02
455.36	1.1188E-02
455.56	1.2655E-02
455.77	1.2396E-02
455.97	1.2249E-02
456.17	1.1527E-02
456.38	1.2316E-02
456.58	1.2791E-02
456.78	1.1932E-02
456.99	1.0965E-02
457.19	1.1976E-02
457.39	1.1728E-02
457.60	1.2098E-02
457.80	1.1848E-02
458.00	1.1637E-02
458.21	1.2598E-02
458.41	1.2414E-02
458.61	1.1768E-02
458.82	1.1655E-02
459.02	1.1260E-02
459.22	1.2744E-02
459.43	1.2596E-02
459.63	1.2313E-02
459.83	1.1354E-02
460.03	1.2202E-02
460.24	1.2280E-02
460.44	1.1452E-02
460.64	1.1289E-02
460.85	1.2384E-02
461.05	1.1828E-02
461.25	1.2051E-02
461.46	1.1606E-02
461.66	1.1212E-02
461.86	1.1878E-02
462.07	1.2398E-02
462.27	1.1952E-02
462.47	1.2535E-02
462.67	1.1748E-02
462.88	1.2413E-02
463.08	1.1120E-02
463.28	1.1921E-02
463.49	1.2214E-02
463.69	1.2114E-02
463.89	1.1887E-02
464.09	1.2075E-02
464.30	1.1749E-02
464.50	1.2573E-02
464.70	1.2361E-02
464.91	1.1335E-02
465.11	1.1402E-02
465.31	1.1278E-02
465.51	1.1853E-02
465.72	1.1976E-02
465.92	1.1731E-02
466.12	1.1137E-02
466.33	1.1794E-02
466.53	1.1867E-02
466.73	1.1803E-02
466.93	1.2100E-02
467.14	1.1251E-02
467.34	1.2999E-02
467.54	1.2176E-02
467.74	1.1836E-02
467.95	1.1741E-02
468.15	1.1404E-02
468.35	1.2105E-02
468.55	1.2454E-02
468.76	1.2074E-02
468.96	1.1205E-02
469.16	1.1532E-02
469.37	1.1499E-02
469.57	1.2095E-02
469.77	1.1573E-02
469.97	1.1770E-02
470.18	1.2306E-02
470.38	1.2190E-02
470.58	1.1725E-02
470.78	1.2091E-02
470.99	1.2352E-02
471.19	1.1463E-02
471.39	1.1852E-02
471.59	1.0937E-02
471.79	1.1529E-02
472.00	1.1695E-02
472.20	1.1849E-02
472.40	1.1036E-02
472.60	1.1711E-02
472.81	1.2573E-02
473.01	1.2322E-02
473.21	1.1514E-02
473.41	1.0700E-02
473.62	1.1843E-02
473.82	1.2321E-02
474.02	1.1802E-02
474.22	1.1841E-02
474.42	1.2600E-02
474.63	1.2085E-02
474.83	1.1995E-02
475.03	1.1821E-02
475.23	1.2197E-02
475.44	1.2285E-02
475.64	1.1628E-02
475.84	1.2101E-02
476.04	1.1762E-02
476.24	1.2336E-02
476.45	1.2294E-02
476.65	1.1685E-02
476.85	1.1659E-02
477.05	1.2232E-02
477.25	1.2563E-02
477.46	1.2175E-02
477.66	1.2015E-02
477.86	1.2503E-02
478.06	1.1777E-02
478.26	1.2337E-02
478.47	1.2129E-02
478.67	1.3631E-02
478.87	1.2064E-02
479.07	1.1712E-02
479.27	1.2534E-02
479.47	1.2575E-02
479.68	1.2578E-02
479.88	1.2648E-02
480.08	1.2363E-02
480.28	1.2567E-02
480.48	1.2248E-02
480.69	1.2928E-02
480.89	1.1968E-02
481.09	1.2392E-02
481.29	1.2950E-02
481.49	1.1405E-02
481.69	1.2531E-02
481.90	1.2452E-02
482.10	1.2349E-02
482.30	1.2262E-02
482.50	1.2292E-02
482.70	1.1952E-02
482.90	1.1962E-02
483.11	1.2140E-02
483.31	1.2050E-02
483.51	1.1275E-02
483.71	1.1440E-02
483.91	1.1491E-02
484.11	1.1728E-02
484.32	1.1478E-02
484.52	1.1790E-02
484.72	1.1646E-02
484.92	1.1352E-02
485.12	1.1243E-02
485.32	1.1241E-02
485.52	1.0989E-02
485.73	1.0805E-02
485.93	1.0817E-02
486.13	1.0822E-02
486.33	1.1041E-02
486.53	1.1296E-02
486.73	1.1473E-02
486.93	1.0980E-02
487.14	1.1734E-02
487.34	1.1471E-02
487.54	1.1555E-02
487.74	1.1733E-02
487.94	1.0803E-02
488.14	1.1561E-02
488.34	1.1535E-02
488.54	1.1597E-02
488.75	1.1438E-02
488.95	1.1616E-02
489.15	1.1415E-02
489.35	1.1241E-02
489.55	1.1480E-02
489.75	1.1737E-02
489.95	1.1461E-02
490.15	1.1548E-02
490.36	1.1856E-02
490.56	1.1586E-02
490.76	1.2078E-02
490.96	1.1672E-02
491.16	1.1987E-02
491.36	1.1798E-02
491.56	1.1792E-02
491.76	1.1072E-02
491.96	1.1782E-02
492.17	1.1592E-02
492.37	1.1933E-02
492.57	1.2156E-02
492.77	1.2184E-02
492.97	1.2257E-02
493.17	1.2066E-02
493.37	1.2090E-02
493.57	1.1920E-02
493.77	1.1798E-02
493.97	1.2548E-02
494.17	1.2010E-02
494.38	1.2305E-02
494.58	1.1987E-02
494.78	1.1901E-02
494.98	1.1937E-02
495.18	1.2209E-02
495.38	1.2154E-02
495.58	1.2339E-02
495.78	1.2429E-02
495.98	1.2601E-02
496.18	1.2482E-02
496.38	1.2183E-02
496.58	1.1814E-02
496.78	1.2611E-02
496.99	1.2131E-02
497.19	1.2395E-02
497.39	1.2658E-02
497.59	1.2363E-02
497.79	1.1896E-02
497.99	1.2442E-02
498.19	1.2464E-02
498.39	1.2631E-02
498.59	1.2128E-02
498.79	1.2065E-02
498.99	1.2136E-02
499.19	1.2364E-02
499.39	1.2445E-02
499.59	1.1986E-02
499.79	1.2027E-02
499.99	1.1999E-02
500.19	1.2369E-02
500.40	1.2145E-02
500.60	1.2287E-02
500.80	1.2369E-02
501.00	1.2061E-02
501.20	1.2056E-02
501.40	1.2480E-02
501.60	1.2213E-02
501.80	1.2204E-02
502.00	1.2496E-02
502.20	1.2321E-02
502.40	1.2325E-02
502.60	1.1993E-02
502.80	1.2872E-02
503.00	1.2671E-02
503.20	1.2465E-02
503.40	1.2363E-02
503.60	1.2606E-02
503.80	1.3055E-02
504.00	1.2859E-02
504.20	1.3233E-02
504.40	1.3143E-02
504.60	1.3448E-02
504.80	1.3461E-02
505.00	1.3382E-02
505.20	1.3743E-02
505.40	1.3563E-02
505.60	1.3455E-02
505.80	1.3686E-02
506.00	1.3700E-02
506.20	1.3648E-02
506.40	1.3702E-02
506.60	1.3743E-02
506.80	1.3512E-02
507.00	1.3881E-02
507.20	1.4097E-02
507.40	1.4369E-02
507.60	1.4029E-02
507.80	1.4255E-02
508.00	1.4381E-02
508.20	1.4794E-02
508.40	1.4570E-02
508.60	1.4277E-02
508.80	1.4102E-02
509.00	1.5124E-02
509.20	1.4855E-02
509.40	1.4715E-02
509.60	1.4970E-02
509.80	1.4764E-02
510.00	1.5386E-02
510.20	1.5316E-02
510.40	1.5507E-02
510.60	1.5227E-02
510.80	1.5116E-02
511.00	1.5117E-02
511.20	1.5838E-02
511.40	1.5359E-02
511.60	1.5454E-02
511.80	1.5594E-02
512.00	1.5627E-02
512.20	1.5872E-02
512.40	1.5587E-02
512.60	1.5733E-02
512.80	1.5804E-02
513.00	1.6133E-02
513.20	1.6003E-02
513.40	1.5751E-02
513.59	1.5582E-02
513.79	1.6032E-02
513.99	1.5899E-02
514.19	1.6038E-02
514.39	1.5826E-02
514.59	1.6182E-02
514.79	1.5811E-02
514.99	1.5769E-02
515.19	1.5973E-02
515.39	1.6117E-02
515.59	1.6163E-02
515.79	1.5514E-02
515.99	1.6318E-02
516.19	1.6214E-02
516.39	1.6044E-02
516.59	1.6190E-02
516.79	1.6598E-02
516.98	1.5964E-02
517.18	1.6612E-02
517.38	1.6547E-02
517.58	1.6626E-02
517.78	1.6658E-02
517.98	1.6775E-02
518.18	1.6986E-02
518.38	1.7736E-02
518.58	1.7277E-02
518.78	1.7256E-02
518.98	1.7365E-02
519.18	1.7702E-02
519.38	1.8181E-02
519.57	1.8126E-02
519.77	1.7933E-02
519.97	1.8517E-02
520.17	1.8451E-02
520.37	1.8558E-02
520.57	1.8950E-02
520.77	1.9156E-02
520.97	1.9167E-02
521.17	1.9132E-02
521.37	1.9616E-02
521.57	1.9936E-02
521.76	1.9555E-02
521.96	2.0035E-02
522.16	1.9898E-02
522.36	2.0497E-02
522.56	1.9771E-02
522.76	2.0166E-02
522.96	2.0707E-02
523.16	2.0438E-02
523.36	2.0865E-02
523.55	2.0401E-02
523.75	2.0490E-02
523.95	2.0519E-02
524.15	2.0244E-02
524.35	2.0528E-02
524.55	2.0642E-02
524.75	2.0906E-02
524.95	2.1063E-02
525.14	2.0830E-02
525.34	2.0676E-02
525.54	2.0337E-02
525.74	2.0727E-02
525.94	2.0880E-02
526.14	2.1298E-02
526.34	2.1295E-02
526.54	2.1772E-02
526.73	2.1146E-02
526.93	2.1788E-02
527.13	2.1885E-02
527.33	2.2004E-02
527.53	2.2297E-02
527.73	2.1978E-02
527.93	2.2474E-02
528.12	2.2000E-02
528.32	2.2381E-02
528.52	2.2975E-02
528.72	2.3207E-02
528.92	2.2954E-02
529.12	2.2982E-02
529.32	2.3226E-02
529.51	2.3483E-02
529.71	2.3555E-02
529.91	2.3519E-02
530.11	2.3824E-02
530.31	2.4283E-02
530.51	2.3716E-02
530.70	2.3606E-02
530.90	2.4035E-02
531.10	2.3838E-02
531.30	2.4133E-02
531.50	2.4110E-02
531.70	2.4271E-02
531.89	2.3883E-02
532.09	2.4026E-02
532.29	2.3885E-02
532.49	2.4459E-02
532.69	2.4310E-02
532.88	2.4198E-02
533.08	2.3836E-02
533.28	2.4202E-02
533.48	2.4772E-02
533.68	2.4530E-02
533.88	2.5197E-02
534.07	2.5104E-02
534.27	2.5087E-02
534.47	2.5417E-02
534.67	2.4638E-02
534.87	2.5395E-02
535.06	2.5381E-02
535.26	2.5127E-02
535.46	2.4984E-02
535.66	2.6031E-02
535.86	2.5289E-02
536.05	2.5268E-02
536.25	2.5494E-02
536.45	2.5689E-02
536.65	2.5582E-02
536.85	2.5320E-02
537.04	2.5628E-02
537.24	2.6193E-02
537.44	2.5125E-02
537.64	2.4846E-02
537.83	2.5736E-02
538.03	2.5879E-02
538.23	2.6316E-02
538.43	2.6153E-02
538.63	2.5565E-02
538.82	2.5860E-02
539.02	2.5853E-02
539.22	2.6208E-02
539.42	2.5700E-02
539.61	2.6182E-02
539.81	2.6307E-02
540.01	2.5809E-02
540.21	2.6116E-02
540.41	2.5903E-02
540.60	2.6102E-02
540.80	2.6142E-02
541.00	2.6225E-02
541.20	2.6798E-02
541.39	2.6699E-02
541.59	2.6641E-02
541.79	2.6784E-02
541.99	2.7232E-02
542.18	2.6917E-02
542.38	2.6808E-02
542.58	2.6801E-02
542.78	2.7092E-02
542.97	2.6471E-02
543.17	2.7104E-02
543.37	2.6684E-02
543.57	2.7442E-02
543.76	2.7941E-02
543.96	2.7671E-02
544.16	2.7204E-02
544.36	2.7555E-02
544.55	2.8342E-02
544.75	2.7881E-02
544.95	2.8250E-02
545.14	2.7180E-02
545.34	2.8290E-02
545.54	2.7755E-02
545.74	2.7959E-02
545.93	2.8445E-02
546.13	2.8347E-02
546.33	2.7924E-02
546.53	2.7814E-02
546.72	2.8712E-02
546.92	2.8693E-02
547.12	2.8338E-02
547.31	2.8711E-02
547.51	2.8563E-02
547.71	2.9160E-02
547.91	2.9123E-02
548.10	2.8242E-02
548.30	2.8658E-02
548.50	2.9418E-02
548.69	2.9191E-02
548.89	2.9101E-02
549.09	2.9235E-02
549.29	2.9029E-02
549.48	3.0200E-02
549.68	2.8870E-02
549.88	2.9679E-02
550.07	2.9898E-02
550.27	2.9778E-02
550.47	2.7350E-02
550.66	3.0556E-02
550.86	2.9186E-02
551.06	3.0507E-02
551.25	2.9592E-02
551.45	3.0508E-02
551.65	3.0546E-02
551.85	3.0957E-02
552.04	2.9481E-02
552.24	3.0361E-02
552.44	2.9932E-02
552.63	2.9945E-02
552.83	3.0480E-02
553.03	2.9743E-02
553.22	3.0895E-02
553.42	3.0069E-02
553.62	3.1134E-02
553.81	3.0174E-02
554.01	3.0756E-02
554.21	3.0058E-02
554.40	3.0615E-02
554.60	3.0421E-02
554.80	3.0823E-02
554.99	3.0735E-02
555.19	3.0643E-02
555.39	3.0859E-02
555.58	3.0238E-02
555.78	3.0399E-02
555.98	3.0192E-02
556.17	3.0171E-02
556.37	3.0371E-02
556.56	3.0345E-02
556.76	3.0316E-02
556.96	2.9830E-02
557.15	3.0162E-02
557.35	2.9962E-02
557.55	2.9930E-02
557.74	2.9845E-02
557.94	3.0322E-02
558.14	3.0565E-02
558.33	2.9708E-02
558.53	2.9564E-02
558.73	2.9980E-02
558.92	2.9335E-02
559.12	3.0471E-02
559.31	3.0595E-02
559.51	3.1031E-02
559.71	3.0414E-02
559.90	3.0843E-02
560.10	3.0810E-02
560.30	3.0760E-02
560.49	3.0430E-02
560.69	3.0993E-02
560.88	3.1402E-02
561.08	3.0307E-02
561.28	3.0481E-02
561.47	3.1112E-02
561.67	3.1183E-02
561.86	3.0672E-02
562.06	3.1024E-02
562.26	3.1433E-02
562.45	3.0994E-02
562.65	3.1338E-02
562.84	3.0509E-02
563.04	3.0956E-02
563.24	3.0852E-02
563.43	3.1568E-02
563.63	3.1519E-02
563.82	3.1010E-02
564.02	3.1431E-02
564.22	3.1635E-02
564.41	3.0699E-02
564.61	3.1187E-02
564.80	3.1278E-02
565.00	3.0824E-02
565.20	3.1604E-02
565.39	3.0559E-02
565.59	3.0136E-02
565.78	3.0831E-02
565.98	3.0124E-02
566.18	3.1261E-02
566.37	3.0814E-02
566.57	3.0508E-02
566.76	3.0239E-02
566.96	3.1065E-02
567.15	3.0307E-02
567.35	3.1359E-02
567.55	3.0625E-02
567.74	3.0769E-02
567.94	3.0282E-02
568.13	3.0815E-02
568.33	3.1294E-02
568.52	3.1124E-02
568.72	3.0644E-02
568.91	3.0397E-02
569.11	3.0525E-02
569.31	3.1247E-02
569.50	3.0235E-02
569.70	3.0847E-02
569.89	3.0590E-02
570.09	3.0376E-02
570.28	3.0164E-02
570.48	3.0482E-02
570.67	3.1143E-02
570.87	3.0094E-02
571.07	3.0098E-02
571.26	3.0787E-02
571.46	3.0574E-02
571.65	3.0928E-02
571.85	3.1184E-02
572.04	3.0749E-02
572.24	3.1556E-02
572.43	3.0820E-02
572.63	3.1528E-02
572.82	3.0951E-02
573.02	3.1573E-02
573.21	3.1004E-02
573.41	3.1463E-02
573.60	3.2014E-02
573.80	3.1651E-02
573.99	3.1311E-02
574.19	3.2112E-02
574.38	3.1484E-02
574.58	3.1712E-02
574.78	3.1034E-02
574.97	3.1897E-02
575.17	3.1657E-02
575.36	3.1317E-02
575.56	3.0948E-02
575.75	3.2074E-02
575.95	3.1421E-02
576.14	3.1080E-02
576.34	3.1961E-02
576.53	3.1196E-02
576.73	3.1393E-02
576.92	3.0768E-02
577.12	3.2087E-02
577.31	3.0430E-02
577.51	3.2092E-02
577.70	3.1535E-02
577.90	3.1584E-02
578.09	3.2009E-02
578.29	3.1376E-02
578.48	3.2291E-02
578.68	3.1751E-02
578.87	3.2844E-02
579.06	3.1650E-02
579.26	3.2207E-02
579.45	3.1771E-02
579.65	3.3098E-02
579.84	3.2267E-02
580.04	3.2723E-02
580.23	3.3086E-02
580.43	3.1821E-02
580.62	3.2657E-02
580.82	3.2780E-02
581.01	3.2489E-02
581.21	3.2420E-02
581.40	3.2255E-02
581.60	3.3191E-02
581.79	3.3338E-02
581.99	3.2435E-02
582.18	3.2426E-02
582.37	3.2872E-02
582.57	3.2858E-02
582.76	3.3252E-02
582.96	3.3346E-02
583.15	3.3069E-02
583.35	3.3009E-02
583.54	3.3037E-02
583.74	3.2854E-02
583.93	3.2335E-02
584.12	3.1985E-02
584.32	3.3225E-02
584.51	3.2691E-02
584.71	3.1852E-02
584.90	3.2031E-02
585.10	3.2185E-02
585.29	3.2300E-02
585.49	3.2417E-02
585.68	3.2640E-02
585.87	3.2270E-02
586.07	3.2174E-02
586.26	3.1984E-02
586.46	3.1973E-02
586.65	3.1624E-02
586.85	3.2022E-02
587.04	3.0853E-02
587.23	3.2070E-02
587.43	3.1728E-02
587.62	3.0343E-02
587.82	3.1568E-02
588.01	3.0795E-02
588.20	3.0976E-02
588.40	3.0293E-02
588.59	3.0907E-02
588.79	3.1135E-02
588.98	3.1510E-02
589.18	3.0842E-02
589.37	3.1408E-02
589.56	3.0428E-02
589.76	3.0183E-02
589.95	3.1567E-02
590.15	3.1017E-02
590.34	3.0413E-02
590.53	3.1571E-02
590.73	3.0974E-02
590.92	3.1036E-02
591.11	3.1597E-02
591.31	3.1660E-02
591.50	3.2110E-02
591.70	3.1751E-02
591.89	3.2617E-02
592.08	3.1570E-02
592.28	3.1263E-02
592.47	3.2528E-02
592.67	3.2362E-02
592.86	3.2346E-02
593.05	3.1536E-02
593.25	3.2550E-02
593.44	3.2097E-02
593.63	3.2958E-02
593.83	3.2075E-02
594.02	3.3218E-02
594.22	3.3120E-02
594.41	3.3654E-02
594.60	3.2889E-02
594.80	3.3051E-02
594.99	3.3117E-02
595.18	3.3145E-02
595.38	3.2876E-02
595.57	3.3188E-02
595.76	3.3443E-02
595.96	3.3182E-02
596.15	3.2355E-02
596.34	3.4391E-02
596.54	3.4137E-02
596.73	3.3562E-02
596.93	3.3970E-02
597.12	3.3378E-02
597.31	3.4084E-02
597.51	3.3608E-02
597.70	3.3829E-02
597.89	3.3538E-02
598.09	3.3276E-02
598.28	3.4981E-02
598.47	3.3620E-02
598.67	3.3864E-02
598.86	3.3252E-02
599.05	3.4546E-02
599.25	3.4020E-02
599.44	3.4398E-02
599.63	3.4915E-02
599.83	3.4030E-02
600.02	3.4169E-02
600.21	3.4296E-02
600.41	3.4500E-02
600.60	3.3635E-02
600.79	3.4448E-02
600.98	3.4522E-02
601.18	3.5457E-02
601.37	3.4135E-02
601.56	3.4403E-02
601.76	3.6130E-02
601.95	3.4612E-02
602.14	3.5028E-02
602.34	3.5053E-02
602.53	3.5852E-02
602.72	3.4841E-02
602.92	3.5601E-02
603.11	3.5087E-02
603.30	3.5601E-02
603.49	3.5114E-02
603.69	3.6377E-02
603.88	3.5633E-02
604.07	3.6203E-02
604.27	3.5672E-02
604.46	3.5060E-02
604.65	3.5856E-02
604.84	3.5711E-02
605.04	3.6178E-02
605.23	3.5900E-02
605.42	3.5850E-02
605.62	3.6117E-02
605.81	3.5450E-02
606.00	3.5658E-02
606.19	3.6233E-02
606.39	3.6180E-02
606.58	3.5526E-02
606.77	3.5763E-02
606.97	3.5191E-02
607.16	3.6190E-02
607.35	3.6517E-02
607.54	3.5924E-02
607.74	3.6677E-02
607.93	3.6890E-02
608.12	3.5970E-02
608.31	3.6349E-02
608.51	3.6613E-02
608.70	3.6062E-02
608.89	3.5918E-02
609.08	3.5481E-02
609.28	3.6170E-02
609.47	3.6340E-02
609.66	3.6552E-02
609.85	3.6748E-02
610.05	3.6930E-02
610.24	3.6096E-02
610.43	3.6583E-02
610.62	3.6266E-02
610.82	3.6050E-02
611.01	3.6670E-02
611.20	3.6314E-02
611.39	3.6447E-02
611.59	3.6324E-02
611.78	3.6875E-02
611.97	3.6593E-02
612.16	3.7382E-02
612.35	3.6257E-02
612.55	3.6302E-02
612.74	3.6934E-02
612.93	3.6753E-02
613.12	3.5708E-02
613.32	3.6454E-02
613.51	3.6699E-02
613.70	3.6546E-02
613.89	3.6550E-02
614.08	3.6610E-02
614.28	3.6353E-02
614.47	3.5862E-02
614.66	3.6230E-02
614.85	3.6811E-02
615.04	3.6655E-02
615.24	3.7529E-02
615.43	3.6703E-02
615.62	3.6361E-02
615.81	3.6481E-02
616.00	3.5456E-02
616.20	3.6479E-02
616.39	3.6612E-02
616.58	3.6692E-02
616.77	3.6771E-02
616.96	3.8209E-02
617.16	3.8146E-02
617.35	3.7860E-02
617.54	3.7288E-02
617.73	3.7182E-02
617.92	3.7380E-02
618.12	3.8587E-02
618.31	3.8224E-02
618.50	3.8464E-02
618.69	3.7990E-02
618.88	3.9406E-02
619.07	3.8779E-02
619.27	3.9104E-02
619.46	3.9231E-02
619.65	4.0114E-02
619.84	3.8997E-02
620.03	3.8865E-02
620.22	4.0058E-02
620.42	3.8074E-02
620.61	4.0156E-02
620.80	3.9777E-02
620.99	3.9478E-02
621.18	4.0471E-02
621.37	3.9215E-02
621.57	3.8207E-02
621.76	3.9847E-02
621.95	3.9591E-02
622.14	3.8752E-02
622.33	3.8342E-02
622.52	3.9095E-02
622.71	3.9826E-02
622.91	4.0082E-02
623.10	3.9776E-02
623.29	3.9494E-02
623.48	3.9060E-02
623.67	3.9886E-02
623.86	3.9889E-02
624.05	3.9792E-02
624.25	3.8959E-02
624.44	4.0064E-02
624.63	4.0700E-02
624.82	4.0190E-02
625.01	3.9696E-02
625.20	4.0741E-02
625.39	3.9251E-02
625.58	4.0480E-02
625.78	4.0719E-02
625.97	3.9025E-02
626.16	3.9804E-02
626.35	3.9714E-02
626.54	4.0701E-02
626.73	4.0728E-02
626.92	4.0135E-02
627.11	4.0084E-02
627.31	4.0019E-02
627.50	3.9939E-02
627.69	4.0566E-02
627.88	4.0913E-02
628.07	3.8620E-02
628.26	3.9916E-02
628.45	3.9542E-02
628.64	3.9933E-02
628.83	3.9737E-02
629.02	3.8351E-02
629.22	4.1022E-02
629.41	3.9418E-02
629.60	3.8276E-02
629.79	4.0397E-02
629.98	3.9260E-02
630.17	3.9973E-02
630.36	3.9723E-02
630.55	3.9867E-02
630.74	4.0185E-02
630.93	4.0834E-02
631.12	3.9271E-02
631.31	3.9480E-02
631.51	4.0643E-02
631.70	4.0384E-02
631.89	3.9354E-02
632.08	3.9588E-02
632.27	4.0204E-02
632.46	3.9918E-02
632.65	4.0051E-02
632.84	3.9034E-02
633.03	4.1036E-02
633.22	4.0122E-02
633.41	4.1122E-02
633.60	4.1106E-02
633.79	4.0366E-02
633.98	3.9296E-02
634.17	4.0578E-02
634.37	4.0616E-02
634.56	4.1406E-02
634.75	3.9770E-02
634.94	4.1293E-02
635.13	4.0489E-02
635.32	4.1319E-02
635.51	4.1185E-02
635.70	3.9942E-02
635.89	4.2221E-02
636.08	4.0661E-02
636.27	3.9894E-02
636.46	4.1352E-02
636.65	4.0613E-02
636.84	3.9879E-02
637.03	4.1168E-02
637.22	4.1067E-02
637.41	4.0644E-02
637.60	4.1216E-02
637.79	4.1248E-02
637.98	4.0873E-02
638.17	4.0894E-02
638.36	4.0041E-02
638.55	3.9221E-02
638.74	3.9436E-02
638.93	3.9896E-02
639.12	3.9536E-02
639.31	3.9909E-02
639.50	3.9571E-02
639.69	3.9283E-02
639.88	4.0468E-02
640.07	3.9590E-02
640.26	4.0691E-02
640.45	4.0052E-02
640.64	4.0338E-02
640.83	4.0261E-02
641.02	4.1143E-02
641.21	4.0071E-02
641.40	3.8631E-02
641.59	4.0286E-02
641.78	4.0714E-02
641.97	4.0503E-02
642.16	4.1016E-02
642.35	4.0678E-02
642.54	4.0731E-02
642.73	4.0228E-02
642.92	3.8030E-02
643.11	4.0782E-02
643.30	4.0981E-02
643.49	3.9689E-02
643.68	4.0244E-02
643.87	3.9002E-02
644.06	3.9949E-02
644.25	3.9035E-02
644.44	3.9287E-02
644.63	3.9100E-02
644.82	3.9062E-02
645.01	3.9707E-02
645.20	3.9561E-02
645.39	3.8839E-02
645.58	3.8529E-02
645.77	3.8461E-02
645.96	3.9469E-02
646.15	3.8579E-02
646.34	3.8863E-02
646.53	3.8617E-02
646.72	3.8862E-02
646.91	3.7827E-02
647.10	3.9912E-02
647.29	3.8297E-02
647.47	3.9135E-02
647.66	3.8209E-02
647.85	3.7870E-02
648.04	3.7976E-02
648.23	3.8094E-02
648.42	4.0215E-02
648.61	3.7202E-02
648.80	3.8497E-02
648.99	3.9111E-02
649.18	3.7531E-02
649.37	3.8912E-02
649.56	3.8293E-02
649.75	3.8025E-02
649.94	3.9187E-02
650.13	3.8821E-02
650.31	3.9092E-02
650.50	3.8430E-02
650.69	3.9054E-02
650.88	3.8356E-02
651.07	3.8510E-02
651.26	3.8985E-02
651.45	4.0112E-02
651.64	3.9138E-02
651.83	3.7969E-02
652.02	3.8859E-02
652.21	3.8148E-02
652.40	3.8185E-02
652.58	4.0302E-02
652.77	3.7958E-02
652.96	3.7644E-02
653.15	3.8880E-02
653.34	3.8626E-02
653.53	3.8643E-02
653.72	3.8433E-02
653.91	3.7210E-02
654.10	3.7634E-02
654.29	3.6739E-02
654.47	3.8571E-02
654.66	3.5852E-02
654.85	3.6342E-02
655.04	3.5760E-02
655.23	3.6901E-02
655.42	3.5376E-02
655.61	3.6612E-02
655.80	3.6307E-02
655.98	3.7092E-02
656.17	3.6938E-02
656.36	3.7450E-02
656.55	3.6551E-02
656.74	3.8327E-02
656.93	3.8049E-02
657.12	3.8295E-02
657.31	3.7135E-02
657.49	3.9586E-02
657.68	3.8996E-02
657.87	3.7196E-02
658.06	4.0097E-02
658.25	3.8551E-02
658.44	3.9884E-02
658.63	3.9161E-02
658.81	3.8900E-02
659.00	3.9775E-02
659.19	3.9260E-02
659.38	4.1279E-02
659.57	4.1325E-02
659.76	4.0075E-02
659.95	4.1938E-02
660.13	3.9459E-02
660.32	4.1224E-02
660.51	4.0809E-02
660.70	4.1955E-02
660.89	4.0944E-02
661.08	4.1463E-02
661.26	4.0716E-02
661.45	4.1813E-02
661.64	4.0962E-02
661.83	4.0766E-02
662.02	4.1109E-02
662.21	4.1786E-02
662.39	4.2228E-02
662.58	4.1359E-02
662.77	4.3197E-02
662.96	4.2298E-02
663.15	4.1123E-02
663.33	4.2948E-02
663.52	4.1575E-02
663.71	4.1544E-02
663.90	4.1654E-02
664.09	4.0360E-02
664.28	4.1239E-02
664.46	4.0387E-02
664.65	4.0520E-02
664.84	3.9831E-02
665.03	4.0891E-02
665.22	4.1389E-02
665.40	4.1261E-02
665.59	4.0615E-02
665.78	4.0603E-02
665.97	4.0514E-02
666.16	4.1361E-02
666.34	4.2155E-02
666.53	4.0473E-02
666.72	4.1963E-02
666.91	4.1044E-02
667.09	4.1149E-02
667.28	4.1990E-02
667.47	4.1855E-02
667.66	4.1289E-02
667.85	4.1192E-02
668.03	3.7809E-02
668.22	4.2102E-02
668.41	4.1351E-02
668.60	3.9201E-02
668.78	4.2130E-02
668.97	4.1111E-02
669.16	4.0211E-02
669.35	4.1971E-02
669.54	3.9940E-02
669.72	4.1878E-02
669.91	4.0945E-02
670.10	4.1599E-02
670.29	4.1444E-02
670.47	4.2200E-02
670.66	4.2653E-02
670.85	4.1625E-02
671.04	4.0367E-02
671.22	4.0303E-02
671.41	4.1413E-02
671.60	4.1522E-02
671.79	4.1565E-02
671.97	4.0798E-02
672.16	4.2810E-02
672.35	4.2148E-02
672.54	4.2207E-02
672.72	4.1250E-02
672.91	4.0489E-02
673.10	4.1380E-02
673.28	4.0838E-02
673.47	4.1108E-02
673.66	4.1165E-02
673.85	4.2925E-02
674.03	4.1829E-02
674.22	4.1586E-02
674.41	4.0717E-02
674.60	4.0962E-02
674.78	3.9281E-02
674.97	4.0099E-02
675.16	4.3284E-02
675.34	4.2019E-02
675.53	4.1120E-02
675.72	4.0552E-02
675.91	4.3274E-02
676.09	4.1927E-02
676.28	4.2795E-02
676.47	4.2230E-02
676.65	4.0468E-02
676.84	4.1952E-02
677.03	4.2748E-02
677.22	4.1455E-02
677.40	4.2622E-02
677.59	4.2146E-02
677.78	4.1573E-02
677.96	4.2155E-02
678.15	4.3148E-02
678.34	4.4131E-02
678.52	4.1569E-02
678.71	4.2269E-02
678.90	4.2480E-02
679.08	4.2907E-02
679.27	4.1528E-02
679.46	4.3866E-02
679.64	4.2575E-02
679.83	4.2010E-02
680.02	4.2310E-02
680.21	4.0144E-02
680.39	4.3368E-02
680.58	4.2469E-02
680.77	4.1986E-02
680.95	4.2281E-02
681.14	4.0410E-02
681.33	4.2066E-02
681.51	4.2933E-02
681.70	4.2436E-02
681.89	4.3102E-02
682.07	4.1949E-02
682.26	4.0060E-02
682.44	4.2645E-02
682.63	4.2337E-02
682.82	4.2982E-02
683.00	3.9799E-02
683.19	4.1894E-02
683.38	4.2399E-02
683.56	4.2864E-02
683.75	4.2113E-02
683.94	4.0315E-02
684.12	4.0105E-02
684.31	4.1786E-02
684.50	4.1935E-02
684.68	4.0142E-02
684.87	3.9988E-02
685.05	4.0437E-02
685.24	3.8542E-02
685.43	3.9652E-02
685.61	3.9565E-02
685.80	3.8088E-02
685.99	3.9421E-02
686.17	3.7640E-02
686.36	3.9571E-02
686.54	3.9406E-02
686.73	3.8678E-02
686.92	3.8823E-02
687.10	3.8002E-02
687.29	3.9297E-02
687.48	3.7653E-02
687.66	4.0203E-02
687.85	3.8209E-02
688.03	3.9046E-02
688.22	3.7425E-02
688.41	3.9586E-02
688.59	3.7430E-02
688.78	3.9654E-02
688.96	4.0226E-02
689.15	4.1281E-02
689.34	3.7506E-02
689.52	4.1743E-02
689.71	4.0227E-02
689.89	4.1171E-02
690.08	4.2575E-02
690.27	4.1149E-02
690.45	4.0530E-02
690.64	4.0282E-02
690.82	3.9348E-02
691.01	4.1037E-02
691.19	4.0439E-02
691.38	4.1079E-02
691.57	4.1743E-02
691.75	3.9903E-02
691.94	4.1917E-02
692.12	4.0677E-02
692.31	4.1998E-02
692.50	4.0985E-02
692.68	4.1847E-02
692.87	4.2717E-02
693.05	4.1890E-02
693.24	4.0111E-02
693.42	4.0939E-02
693.61	4.1784E-02
693.79	4.2764E-02
693.98	4.1072E-02
694.17	4.2285E-02
694.35	4.3789E-02
694.54	4.3948E-02
694.72	4.3093E-02
694.91	4.3178E-02
695.09	4.3406E-02
695.28	4.3733E-02
695.46	4.4164E-02
695.65	4.4573E-02
695.83	4.4764E-02
696.02	4.5895E-02
696.21	4.6346E-02
696.39	4.5052E-02
696.58	4.6252E-02
696.76	4.3237E-02
696.95	4.5139E-02
697.13	4.5580E-02
697.32	4.6459E-02
697.50	4.6486E-02
697.69	4.7108E-02
697.87	4.7847E-02
698.06	4.7856E-02
698.24	4.6300E-02
698.43	4.6965E-02
698.61	4.9178E-02
698.80	4.7867E-02
698.98	4.9367E-02
699.17	4.5885E-02
699.35	4.8757E-02
699.54	4.8148E-02
699.72	4.6519E-02
699.91	4.9715E-02
700.09	4.9556E-02
700.28	4.9873E-02
700.46	4.9964E-02
700.65	4.9326E-02
700.83	5.0281E-02
701.02	5.1110E-02
701.20	4.7783E-02
701.39	5.1937E-02
701.57	5.0594E-02
701.76	4.9146E-02
701.94	5.0599E-02
702.13	5.1207E-02
702.31	4.8327E-02
702.50	5.4596E-02
702.68	5.3301E-02
702.87	5.4001E-02
703.05	5.4396E-02
703.24	5.3421E-02
703.42	4.9648E-02
703.61	5.4535E-02
703.79	5.5562E-02
703.98	5.2968E-02
704.16	5.4467E-02
704.35	5.3775E-02
704.53	5.5046E-02
704.72	5.5351E-02
704.90	5.6117E-02
705.08	5.4405E-02
705.27	5.7761E-02
705.45	5.7534E-02
705.64	5.8572E-02
705.82	5.8123E-02
706.01	5.8290E-02
706.19	5.7473E-02
706.38	5.8393E-02
706.56	6.0696E-02
706.75	6.0430E-02
706.93	5.9723E-02
707.11	5.7998E-02
707.30	6.1069E-02
707.48	6.0622E-02
707.67	5.9010E-02
707.85	6.0069E-02
708.04	6.1103E-02
708.22	6.1152E-02
708.40	5.9900E-02
708.59	5.9279E-02
708.77	6.2562E-02
708.96	6.1672E-02
709.14	6.2771E-02
709.33	6.2049E-02
709.51	6.3449E-02
709.69	6.3515E-02
709.88	6.4415E-02
710.06	6.4114E-02
710.25	6.3039E-02
710.43	6.4562E-02
710.62	6.5975E-02
710.80	6.4970E-02
710.98	6.5946E-02
711.17	6.5560E-02
711.35	6.6573E-02
711.54	6.7263E-02
711.72	6.5646E-02
711.90	6.7649E-02
712.09	6.7853E-02
712.27	6.5782E-02
712.46	6.7568E-02
712.64	6.5953E-02
712.82	6.8681E-02
713.01	6.8677E-02
713.19	6.8535E-02
713.37	6.7246E-02
713.56	6.6935E-02
713.74	6.8553E-02
713.93	6.7038E-02
714.11	6.5823E-02
714.29	6.4103E-02
714.48	6.6874E-02
714.66	6.6602E-02
714.85	6.4755E-02
715.03	6.4951E-02
715.21	6.4344E-02
715.40	6.2887E-02
715.58	6.2888E-02
715.76	6.1212E-02
715.95	6.1806E-02
716.13	6.3773E-02
716.31	6.2309E-02
716.50	6.1439E-02
716.68	5.9940E-02
716.87	6.1297E-02
717.05	6.1042E-02
717.23	5.8819E-02
717.42	6.0075E-02
717.60	5.9200E-02
717.78	5.9953E-02
717.97	5.9907E-02
718.15	5.9264E-02
718.33	5.8737E-02
718.52	6.0355E-02
718.70	6.1537E-02
718.88	5.9982E-02
719.07	6.4124E-02
719.25	6.1780E-02
719.43	6.3166E-02
719.62	6.2818E-02
719.80	6.3197E-02
719.98	6.5728E-02
720.17	6.5208E-02
720.35	6.5454E-02
720.53	6.7581E-02
720.72	6.8682E-02
720.90	6.7786E-02
721.08	6.7272E-02
721.27	6.8345E-02
721.45	6.8512E-02
721.63	6.8510E-02
721.82	6.9993E-02
722.00	6.8780E-02
722.18	6.8837E-02
722.36	7.0955E-02
722.55	7.0173E-02
722.73	7.0321E-02
722.91	7.0240E-02
723.10	7.1397E-02
723.28	7.0218E-02
723.46	6.7207E-02
723.65	6.9692E-02
723.83	6.9912E-02
724.01	6.9347E-02
724.19	7.1091E-02
724.38	7.1327E-02
724.56	7.2180E-02
724.74	7.3170E-02
724.93	6.9915E-02
725.11	7.0874E-02
725.29	7.3548E-02
725.47	7.3524E-02
725.66	7.3734E-02
725.84	7.3358E-02
726.02	7.4097E-02
726.21	7.6159E-02
726.39	7.4546E-02
726.57	7.5423E-02
726.75	7.4888E-02
726.94	7.7743E-02
727.12	7.6265E-02
727.30	7.6393E-02
727.48	7.5756E-02
727.67	7.8333E-02
727.85	7.7263E-02
728.03	7.8541E-02
728.21	8.0287E-02
728.40	7.8343E-02
728.58	8.1282E-02
728.76	8.0190E-02
728.94	8.1569E-02
729.13	8.2959E-02
729.31	8.1219E-02
729.49	8.3531E-02
729.67	8.4127E-02
729.86	8.5484E-02
730.04	8.3907E-02
730.22	8.7506E-02
730.40	8.7867E-02
730.59	8.8755E-02
730.77	8.9808E-02
730.95	9.2381E-02
731.13	9.1960E-02
731.31	9.3316E-02
731.50	9.1800E-02
731.68	9.6470E-02
731.86	9.5549E-02
732.04	9.7369E-02
732.23	9.9568E-02
732.41	9.8803E-02
732.59	1.0024E-01
732.77	1.0096E-01
732.95	1.0162E-01
733.14	1.0118E-01
733.32	1.0425E-01
733.50	1.0352E-01
733.68	1.0363E-01
733.86	1.0419E-01
734.05	1.0585E-01
734.23	1.0673E-01
734.41	1.0396E-01
734.59	1.0616E-01
734.77	1.0682E-01
734.96	1.0444E-01
735.14	1.0854E-01
735.32	1.0817E-01
735.50	1.0818E-01
735.68	1.1080E-01
735.87	1.0953E-01
736.05	1.1283E-01
736.23	1.0866E-01
736.41	1.1289E-01
736.59	1.1276E-01
736.77	1.1231E-01
736.96	1.1235E-01
737.14	1.1104E-01
737.32	1.1487E-01
737.50	1.1618E-01
737.68	1.1591E-01
737.87	1.1701E-01
738.05	1.1882E-01
738.23	1.1514E-01
738.41	1.1716E-01
738.59	1.1829E-01
738.77	1.1949E-01
738.95	1.2158E-01
739.14	1.1903E-01
739.32	1.1995E-01
739.50	1.2347E-01
739.68	1.2072E-01
739.86	1.2220E-01
740.04	1.2211E-01
740.23	1.2029E-01
740.41	1.2365E-01
740.59	1.2448E-01
740.77	1.2591E-01
740.95	1.2488E-01
741.13	1.2421E-01
741.31	1.2385E-01
741.50	1.2447E-01
741.68	1.2426E-01
741.86	1.2428E-01
742.04	1.2726E-01
742.22	1.2847E-01
742.40	1.2802E-01
742.58	1.2917E-01
742.76	1.2979E-01
742.95	1.2646E-01
743.13	1.3102E-01
743.31	1.3049E-01
743.49	1.2982E-01
743.67	1.3264E-01
743.85	1.3220E-01
744.03	1.3121E-01
744.21	1.3273E-01
744.39	1.3099E-01
744.58	1.3400E-01
744.76	1.3406E-01
744.94	1.3601E-01
745.12	1.3474E-01
745.30	1.3368E-01
745.48	1.3596E-01
745.66	1.3679E-01
745.84	1.3380E-01
746.02	1.3399E-01
746.20	1.3559E-01
746.38	1.3679E-01
746.57	1.3912E-01
746.75	1.3401E-01
746.93	1.3768E-01
747.11	1.3519E-01
747.29	1.3723E-01
747.47	1.3891E-01
747.65	1.3858E-01
747.83	1.3541E-01
748.01	1.3801E-01
748.19	1.3854E-01
748.37	1.3849E-01
748.55	1.3842E-01
748.73	1.3738E-01
748.92	1.3916E-01
749.10	1.3768E-01
749.28	1.4018E-01
749.46	1.3863E-01
749.64	1.3801E-01
749.82	1.3906E-01
750.00	1.4087E-01
750.18	1.4030E-01
750.36	1.3781E-01
750.54	1.4078E-01
750.72	1.4238E-01
750.90	1.4247E-01
751.08	1.4129E-01
751.26	1.4315E-01
751.44	1.4316E-01
751.62	1.4463E-01
751.80	1.4291E-01
751.98	1.4405E-01
752.16	1.4502E-01
752.34	1.4563E-01
752.52	1.4642E-01
752.71	1.4293E-01
752.89	1.4238E-01
753.07	1.4663E-01
753.25	1.4275E-01
753.43	1.4720E-01
753.61	1.4473E-01
753.79	1.4846E-01
753.97	1.4766E-01
754.15	1.4877E-01
754.33	1.4999E-01
754.51	1.5017E-01
754.69	1.5089E-01
754.87	1.4971E-01
755.05	1.5011E-01
755.23	1.5198E-01
755.41	1.5362E-01
755.59	1.4366E-01
755.77	1.4965E-01
755.95	1.4856E-01
756.13	1.4468E-01
756.31	1.4810E-01
756.49	1.4727E-01
756.67	1.4406E-01
756.85	1.4219E-01
757.03	1.3953E-01
757.21	1.3808E-01
757.39	1.3658E-01
757.57	1.3504E-01
757.75	1.2953E-01
757.93	1.2397E-01
758.11	1.2275E-01
758.29	1.2017E-01
758.47	1.1575E-01
758.65	1.1423E-01
758.83	1.1483E-01
759.01	1.1055E-01
759.18	1.0658E-01
759.36	1.0017E-01
759.54	1.0158E-01
759.72	9.7212E-02
759.90	9.7976E-02
760.08	9.6429E-02
760.26	9.5628E-02
760.44	9.2198E-02
760.62	8.9547E-02
760.80	8.9361E-02
760.98	9.3785E-02
761.16	9.3507E-02
761.34	9.1303E-02
761.52	9.4591E-02
761.70	9.1308E-02
761.88	9.2430E-02
762.06	9.3405E-02
762.24	9.3309E-02
762.42	9.4438E-02
762.60	9.5637E-02
762.78	9.7649E-02
762.95	9.7808E-02
763.13	1.0111E-01
763.31	1.0339E-01
763.49	1.0336E-01
763.67	1.0576E-01
763.85	1.0482E-01
764.03	1.1138E-01
764.21	1.1050E-01
764.39	1.1477E-01
764.57	1.1946E-01
764.75	1.2011E-01
764.93	1.2658E-01
765.11	1.2495E-01
765.28	1.3061E-01
765.46	1.3186E-01
765.64	1.3320E-01
765.82	1.3694E-01
766.00	1.4017E-01
766.18	1.4239E-01
766.36	1.4391E-01
766.54	1.4531E-01
766.72	1.4776E-01
766.90	1.5311E-01
767.07	1.4933E-01
767.25	1.5345E-01
767.43	1.5578E-01
767.61	1.5913E-01
767.79	1.6058E-01
767.97	1.6093E-01
768.15	1.6076E-01
768.33	1.6010E-01
768.51	1.6399E-01
768.68	1.6470E-01
768.86	1.6336E-01
769.04	1.6451E-01
769.22	1.6944E-01
769.40	1.6898E-01
769.58	1.6687E-01
769.76	1.7189E-01
769.94	1.7118E-01
770.11	1.6833E-01
770.29	1.7015E-01
770.47	1.7041E-01
770.65	1.7131E-01
770.83	1.7092E-01
771.01	1.7271E-01
771.19	1.7241E-01
771.36	1.7000E-01
771.54	1.7269E-01
771.72	1.7071E-01
771.90	1.6818E-01
772.08	1.7120E-01
772.26	1.7298E-01
772.44	1.6831E-01
772.61	1.7123E-01
772.79	1.6797E-01
772.97	1.7180E-01
773.15	1.7391E-01
773.33	1.6924E-01
773.51	1.7223E-01
773.68	1.6934E-01
773.86	1.6823E-01
774.04	1.6974E-01
774.22	1.6698E-01
774.40	1.6858E-01
774.58	1.7029E-01
774.75	1.6969E-01
774.93	1.6614E-01
775.11	1.7077E-01
775.29	1.6781E-01
775.47	1.6548E-01
775.64	1.7000E-01
775.82	1.6828E-01
776.00	1.6917E-01
776.18	1.6646E-01
776.36	1.6662E-01
776.53	1.7123E-01
776.71	1.6666E-01
776.89	1.6609E-01
777.07	1.6817E-01
777.25	1.6749E-01
777.42	1.6730E-01
777.60	1.6497E-01
777.78	1.6762E-01
777.96	1.6600E-01
778.14	1.6834E-01
778.31	1.6593E-01
778.49	1.6207E-01
778.67	1.6283E-01
778.85	1.6400E-01
779.03	1.6554E-01
779.20	1.6497E-01
779.38	1.6337E-01
779.56	1.6026E-01
779.74	1.6421E-01
779.91	1.6134E-01
780.09	1.6062E-01
780.27	1.5826E-01
780.45	1.5951E-01
780.62	1.6076E-01
780.80	1.6130E-01
780.98	1.5683E-01
781.16	1.5467E-01
781.34	1.5890E-01
781.51	1.5956E-01
781.69	1.5998E-01
781.87	1.5856E-01
782.05	1.5755E-01
782.22	1.5795E-01
782.40	1.5657E-01
782.58	1.5784E-01
782.76	1.5514E-01
782.93	1.5840E-01
783.11	1.6027E-01
783.29	1.5613E-01
783.47	1.5607E-01
783.64	1.5732E-01
783.82	1.5528E-01
784.00	1.5165E-01
784.17	1.5478E-01
784.35	1.5531E-01
784.53	1.5387E-01
784.71	1.5560E-01
784.88	1.5385E-01
785.06	1.5753E-01
785.24	1.5375E-01
785.42	1.5569E-01
785.59	1.5409E-01
785.77	1.4929E-01
785.95	1.5111E-01
786.12	1.4845E-01
786.30	1.5079E-01
786.48	1.4988E-01
786.65	1.4824E-01
786.83	1.4896E-01
787.01	1.4930E-01
787.19	1.4797E-01
787.36	1.4862E-01
787.54	1.4681E-01
787.72	1.4770E-01
787.89	1.4666E-01
788.07	1.4575E-01
788.25	1.4481E-01
788.42	1.4390E-01
788.60	1.4644E-01
788.78	1.4360E-01
788.96	1.4383E-01
789.13	1.4130E-01
789.31	1.4184E-01
789.49	1.4172E-01
789.66	1.4369E-01
789.84	1.4048E-01
790.02	1.3680E-01
790.19	1.3962E-01
790.37	1.4105E-01
790.55	1.3958E-01
790.72	1.3967E-01
790.90	1.4288E-01
791.08	1.3859E-01
791.25	1.3942E-01
791.43	1.3990E-01
791.61	1.3841E-01
791.78	1.3829E-01
791.96	1.3507E-01
792.14	1.3794E-01
792.31	1.3974E-01
792.49	1.3406E-01
792.67	1.4038E-01
792.84	1.3589E-01
793.02	1.3638E-01
793.19	1.3521E-01
793.37	1.3850E-01
793.55	1.3855E-01
793.72	1.3754E-01
793.90	1.3367E-01
794.08	1.3603E-01
794.25	1.3644E-01
794.43	1.3382E-01
794.61	1.3534E-01
794.78	1.3503E-01
794.96	1.3158E-01
795.13	1.3485E-01
795.31	1.3546E-01
795.49	1.3152E-01
795.66	1.3407E-01
795.84	1.3271E-01
796.01	1.3352E-01
796.19	1.3164E-01
796.37	1.3412E-01
796.54	1.3277E-01
796.72	1.3376E-01
796.90	1.3211E-01
797.07	1.2956E-01
797.25	1.3229E-01
797.42	1.3417E-01
797.60	1.3338E-01
797.78	1.3174E-01
797.95	1.2919E-01
798.13	1.2799E-01
798.30	1.3157E-01
798.48	1.3068E-01
798.66	1.3302E-01
798.83	1.2774E-01
799.01	1.3046E-01
799.18	1.2820E-01
799.36	1.3161E-01
799.53	1.2481E-01
799.71	1.3041E-01
799.89	1.2766E-01
800.06	1.2798E-01
800.24	1.2829E-01
800.41	1.2469E-01
800.59	1.2999E-01
800.76	1.2556E-01
800.94	1.2547E-01
801.12	1.2857E-01
801.29	1.2807E-01
801.47	1.2897E-01
801.64	1.2520E-01
801.82	1.2844E-01
801.99	1.2798E-01
802.17	1.2754E-01
802.34	1.2669E-01
802.52	1.2637E-01
802.70	1.2768E-01
802.87	1.2422E-01
803.05	1.2290E-01
803.22	1.2914E-01
803.40	1.2512E-01
803.57	1.2491E-01
803.75	1.2836E-01
803.92	1.2584E-01
804.10	1.2185E-01
804.27	1.2261E-01
804.45	1.2451E-01
804.63	1.2330E-01
804.80	1.2171E-01
804.98	1.2424E-01
805.15	1.1988E-01
805.33	1.2638E-01
805.50	1.2725E-01
805.68	1.2610E-01
805.85	1.2766E-01
806.03	1.2493E-01
806.20	1.2559E-01
806.38	1.1874E-01
806.55	1.2043E-01
806.73	1.2672E-01
806.90	1.2276E-01
807.08	1.2181E-01
807.25	1.1865E-01
807.43	1.2243E-01
807.60	1.2391E-01
807.78	1.1948E-01
807.95	1.1569E-01
808.13	1.1763E-01
808.30	1.1650E-01
808.48	1.2066E-01
808.65	1.1841E-01
808.83	1.2245E-01
809.00	1.1822E-01
809.18	1.2152E-01
809.35	1.1501E-01
809.53	1.1912E-01
809.70	1.1666E-01
809.88	1.1678E-01
810.05	1.1578E-01
810.23	1.1739E-01
810.40	1.1525E-01
810.57	1.1452E-01
810.75	1.1096E-01
810.92	1.1044E-01
811.10	1.1074E-01
811.27	1.0744E-01
811.45	1.0893E-01
811.62	1.0728E-01
811.80	1.0507E-01
811.97	1.0761E-01
812.15	1.0765E-01
812.32	1.0729E-01
812.50	1.0107E-01
812.67	1.0997E-01
812.84	1.0196E-01
813.02	1.0461E-01
813.19	1.0382E-01
813.37	1.0360E-01
813.54	9.9806E-02
813.72	1.0097E-01
813.89	9.7277E-02
814.07	9.9578E-02
814.24	9.9822E-02
814.41	1.0016E-01
814.59	9.5096E-02
814.76	9.4207E-02
814.94	9.6697E-02
815.11	9.7529E-02
815.29	8.9030E-02
815.46	9.0282E-02
815.63	9.1788E-02
815.81	9.1947E-02
815.98	8.5702E-02
816.16	8.6750E-02
816.33	9.2398E-02
816.50	9.3964E-02
816.68	9.1386E-02
816.85	8.9164E-02
817.03	9.1811E-02
817.20	9.0226E-02
817.37	9.2568E-02
817.55	8.9832E-02
817.72	9.1724E-02
817.90	8.7688E-02
818.07	9.1632E-02
818.24	8.7231E-02
818.42	8.9011E-02
818.59	8.8985E-02
818.77	8.9457E-02
818.94	9.2963E-02
819.11	8.8000E-02
819.29	9.3930E-02
819.46	9.2979E-02
819.64	8.7142E-02
819.81	9.5457E-02
819.98	9.3635E-02
820.16	8.9535E-02
820.33	9.2906E-02
820.50	9.2200E-02
820.68	8.8928E-02
820.85	9.2115E-02
821.02	9.0836E-02
821.20	8.8048E-02
821.37	9.1373E-02
821.55	8.5885E-02
821.72	8.9311E-02
821.89	8.9851E-02
822.07	9.3325E-02
822.24	9.2662E-02
822.41	8.5671E-02
822.59	9.5434E-02
822.76	9.5291E-02
822.93	8.9753E-02
823.11	9.1342E-02
823.28	9.3813E-02
823.45	9.0939E-02
823.63	9.1672E-02
823.80	9.4953E-02
823.97	8.6862E-02
824.15	9.5681E-02
824.32	9.1814E-02
824.49	9.8843E-02
824.67	9.2677E-02
824.84	9.5024E-02
825.01	9.5139E-02
825.19	9.5229E-02
825.36	9.5144E-02
825.53	9.8110E-02
825.71	9.6812E-02
825.88	9.7705E-02
826.05	9.2672E-02
826.23	9.6759E-02
826.40	9.4041E-02
826.57	9.4556E-02
826.75	9.3026E-02
826.92	9.0091E-02
827.09	8.9985E-02
827.26	9.8465E-02
827.44	9.4206E-02
827.61	9.7910E-02
827.78	9.5074E-02
827.96	8.8800E-02
828.13	9.7851E-02
828.30	9.4933E-02
828.48	9.3244E-02
828.65	9.2273E-02
828.82	9.2947E-02
828.99	9.3106E-02
829.17	9.4137E-02
829.34	8.6767E-02
829.51	9.2573E-02
829.68	9.7239E-02
829.86	9.5697E-02
830.03	9.2709E-02
830.20	9.4753E-02
830.38	9.3166E-02
830.55	8.9349E-02
830.72	9.4410E-02
830.89	8.9153E-02
831.07	8.9191E-02
831.24	8.9350E-02
831.41	9.0880E-02
831.58	9.4609E-02
831.76	9.7761E-02
831.93	9.4825E-02
832.10	9.4485E-02
832.27	8.8464E-02
832.45	8.8784E-02
832.62	9.4376E-02
832.79	9.1347E-02
832.96	9.5142E-02
833.14	8.9178E-02
833.31	9.8094E-02
833.48	9.4663E-02
833.65	9.1717E-02
833.83	9.8308E-02
834.00	9.9232E-02
834.17	9.4849E-02
834.34	9.7704E-02
834.51	9.5046E-02
834.69	9.2747E-02
834.86	9.8639E-02
835.03	9.4886E-02
835.20	9.8891E-02
835.38	9.5635E-02
835.55	9.6658E-02
835.72	9.4788E-02
835.89	1.0370E-01
836.06	9.4566E-02
836.24	9.4094E-02
836.41	9.1390E-02
836.58	9.8786E-02
836.75	9.7931E-02
836.92	9.6113E-02
837.10	9.2298E-02
837.27	9.5209E-02
837.44	9.2715E-02
837.61	1.0046E-01
837.78	9.4378E-02
837.96	9.7479E-02
838.13	9.5397E-02
838.30	9.9492E-02
838.47	9.7796E-02
838.64	9.6384E-02
838.82	9.5695E-02
838.99	1.0234E-01
839.16	9.5395E-02
839.33	9.6508E-02
839.50	1.0237E-01
839.67	9.8980E-02
839.85	9.2068E-02
840.02	9.8265E-02
840.19	9.5080E-02
840.36	1.0139E-01
840.53	9.3920E-02
840.70	9.3209E-02
840.88	1.0031E-01
841.05	1.0230E-01
841.22	9.8220E-02
841.39	9.7681E-02
841.56	9.9009E-02
841.73	9.7419E-02
841.91	1.0043E-01
842.08	1.0015E-01
842.25	9.9161E-02
842.42	1.0055E-01
842.59	9.8993E-02
842.76	1.0540E-01
842.93	9.9114E-02
843.11	1.0073E-01
843.28	9.8641E-02
843.45	9.9607E-02
843.62	9.4596E-02
843.79	9.6733E-02
843.96	1.0360E-01
844.13	9.9680E-02
844.30	9.9072E-02
844.48	1.0251E-01
844.65	9.4072E-02
844.82	9.1387E-02
844.99	9.6153E-02
845.16	9.5111E-02
845.33	9.6536E-02
845.50	9.6441E-02
845.67	9.1700E-02
845.84	9.6314E-02
846.02	9.3481E-02
846.19	9.6184E-02
846.36	9.6223E-02
846.53	1.0189E-01
846.70	9.6925E-02
846.87	9.0293E-02
847.04	9.7729E-02
847.21	9.7556E-02
847.38	9.7218E-02
847.55	9.7042E-02
847.73	9.2709E-02
847.90	9.5092E-02
848.07	9.1123E-02
848.24	9.2672E-02
848.41	9.0819E-02
848.58	1.0395E-01
848.75	9.4169E-02
848.92	1.0125E-01
849.09	9.5045E-02
849.26	9.2687E-02
849.43	9.0025E-02
849.60	9.3086E-02
849.77	9.6565E-02
849.94	8.1051E-02
850.12	9.7564E-02
850.29	9.4802E-02
850.46	9.2611E-02
850.63	9.0649E-02
850.80	9.4051E-02
850.97	9.3541E-02
851.14	8.7979E-02
851.31	8.3386E-02
851.48	8.9188E-02
851.65	9.1087E-02
851.82	9.5754E-02
851.99	9.4022E-02
852.16	8.3415E-02
852.33	9.1083E-02
852.50	8.7604E-02
852.67	8.9016E-02
852.84	9.0901E-02
853.01	8.8086E-02
853.18	9.1691E-02
853.35	8.5960E-02
853.52	9.5964E-02
853.69	8.8488E-02
853.86	8.3682E-02
854.03	8.3018E-02
854.21	9.0541E-02
854.38	8.8275E-02
854.55	9.1232E-02
854.72	9.1982E-02
854.89	8.4154E-02
855.06	7.8577E-02
855.23	8.6960E-02
855.40	9.2678E-02
855.57	8.2562E-02
855.74	8.5605E-02
855.91	8.7691E-02
856.08	8.3307E-02
856.25	8.8364E-02
856.42	8.6598E-02
856.59	8.6354E-02
856.76	8.8533E-02
856.93	8.7838E-02
857.10	8.7189E-02
857.27	9.4408E-02
857.44	8.9435E-02
857.61	8.9205E-02
857.77	8.3798E-02
857.94	8.4446E-02
858.11	8.3826E-02
858.28	9.3140E-02
858.45	8.4000E-02
858.62	8.9620E-02
858.79	8.6835E-02
858.96	8.7512E-02
859.13	8.8266E-02
859.30	9.2259E-02
859.47	8.6630E-02
859.64	8.0621E-02
859.81	9.1644E-02
859.98	9.2118E-02
860.15	8.7721E-02
860.32	8.4723E-02
860.49	9.7820E-02
860.66	8.9652E-02
860.83	9.1258E-02
861.00	8.9363E-02
861.17	9.0541E-02
861.34	9.1216E-02
861.51	8.0443E-02
861.68	9.1684E-02
861.84	8.9294E-02
862.01	8.4233E-02
862.18	8.6345E-02
862.35	8.9638E-02
862.52	8.9462E-02
862.69	8.6110E-02
862.86	8.8500E-02
863.03	9.0658E-02
863.20	8.8276E-02
863.37	8.9723E-02
863.54	8.3277E-02
863.71	8.3269E-02
863.88	8.6501E-02
864.05	8.5387E-02
864.21	8.9165E-02
864.38	8.1003E-02
864.55	7.9161E-02
864.72	9.0398E-02
864.89	8.4279E-02
865.06	8.9291E-02
865.23	8.2717E-02
865.40	7.8961E-02
865.57	8.9385E-02
865.74	8.4807E-02
865.90	8.5677E-02
866.07	8.4843E-02
866.24	7.7347E-02
866.41	7.5522E-02
866.58	7.8031E-02
866.75	7.8944E-02
866.92	7.9439E-02
867.09	8.0213E-02
867.26	8.1352E-02
867.42	7.6351E-02
867.59	7.2978E-02
867.76	8.3246E-02
867.93	7.9025E-02
868.10	8.1433E-02
868.27	7.1740E-02
868.44	8.1437E-02
868.60	8.3782E-02
868.77	8.2803E-02
868.94	7.9969E-02
869.11	7.8818E-02
869.28	8.4289E-02
869.45	7.3081E-02
869.62	8.2593E-02
869.78	7.9248E-02
869.95	7.4251E-02
870.12	7.7564E-02
870.29	8.1673E-02
870.46	8.2734E-02
870.63	7.7058E-02
870.80	7.1659E-02
870.96	7.5840E-02
871.13	7.4716E-02
871.30	8.0669E-02
871.47	8.1264E-02
871.64	8.0914E-02
871.81	6.7255E-02
871.97	8.4714E-02
872.14	7.2060E-02
872.31	7.0113E-02
872.48	7.4887E-02
872.65	8.1692E-02
872.81	7.6658E-02
872.98	8.4208E-02
873.15	8.1509E-02
873.32	8.2037E-02
873.49	7.7923E-02
873.66	8.2148E-02
873.82	7.8895E-02
873.99	7.5833E-02
874.16	8.1231E-02
874.33	7.8025E-02
874.50	8.3327E-02
874.66	7.9352E-02
874.83	8.0476E-02
875.00	7.8897E-02
875.17	6.9893E-02
875.34	8.3185E-02
875.50	7.7146E-02
875.67	7.5367E-02
875.84	7.7029E-02
876.01	7.4582E-02
876.17	7.1874E-02
876.34	7.1552E-02
876.51	8.2874E-02
876.68	8.0193E-02
876.85	7.7656E-02
877.01	8.0232E-02
877.18	7.3721E-02
877.35	7.5580E-02
877.52	7.4866E-02
877.68	7.7931E-02
877.85	7.2842E-02
878.02	7.4917E-02
878.19	7.2430E-02
878.35	7.4638E-02
878.52	7.3554E-02
878.69	7.5099E-02
878.86	6.8111E-02
879.02	7.1921E-02
879.19	6.6681E-02
879.36	7.0593E-02
879.53	6.3430E-02
879.69	7.0376E-02
879.86	7.7724E-02
880.03	7.6277E-02
880.20	6.9238E-02
880.36	7.7411E-02
880.53	6.8435E-02
880.70	7.8200E-02
880.87	7.1476E-02
881.03	7.1746E-02
881.20	6.4108E-02
881.37	7.1109E-02
881.54	7.3959E-02
881.70	7.8042E-02
881.87	7.0102E-02
882.04	7.1214E-02
882.20	7.1689E-02
882.37	6.5407E-02
882.54	7.3990E-02
882.71	7.3038E-02
882.87	7.7744E-02
883.04	7.0267E-02
883.21	7.0100E-02
883.37	6.7818E-02
883.54	7.1025E-02
883.71	6.9262E-02
883.87	6.6013E-02
884.04	7.6243E-02
884.21	6.9146E-02
884.38	6.6677E-02
884.54	7.7430E-02
884.71	7.7352E-02
884.88	6.8843E-02
885.04	7.1324E-02
885.21	6.6744E-02
885.38	6.6714E-02
885.54	7.8347E-02
885.71	6.7531E-02
885.88	7.1432E-02
886.04	6.9694E-02
886.21	6.9730E-02
886.38	6.6336E-02
886.54	6.6907E-02
886.71	6.2953E-02
886.88	7.2860E-02
887.04	5.9427E-02
887.21	6.4087E-02
887.38	6.9593E-02
887.54	6.6187E-02
887.71	6.6256E-02
887.88	5.8789E-02
888.04	6.7183E-02
888.21	5.9870E-02
888.38	7.2383E-02
888.54	6.3461E-02
888.71	6.6595E-02
888.87	5.8643E-02
889.04	5.8643E-02
>>>>>End Processed Spectral Data<<<<<
