SpectraSuite Data File
++++++++++++++++++++++++++++++++++++
Date: Wed Jul 25 11:31:17 HST 2007
User: guest
Dark Spectrum Present: Yes
Reference Spectrum Present: No
Number of Sampled Component Spectra: 1
Spectrometers: USB4E01242
Integration Time (usec): 20000 (USB4E01242)
Spectra Averaged: 1 (USB4E01242)
Boxcar Smoothing: 10 (USB4E01242)
Correct for Electrical Dark: No (USB4E01242)
Strobe/Lamp Enabled: No (USB4E01242)
Correct for Detector Non-linearity: No (USB4E01242)
Correct for Stray Light: No (USB4E01242)
Number of Pixels in Processed Spectrum: 3648
>>>>>Begin Processed Spectral Data<<<<<
177.33	0.0000E00
177.55	0.0000E00
177.77	0.0000E00
177.99	0.0000E00
178.21	0.0000E00
178.43	0.0000E00
178.64	-0.0000E00
178.86	-0.0000E00
179.08	-0.0000E00
179.30	0.0000E00
179.52	-0.0000E00
179.74	-0.0000E00
179.96	-0.0000E00
180.18	-0.0000E00
180.39	-0.0000E00
180.61	-0.0000E00
180.83	-0.0000E00
181.05	-0.0000E00
181.27	0.0000E00
181.49	-0.0000E00
181.71	0.0000E00
181.92	-0.0000E00
182.14	0.0000E00
182.36	-0.0000E00
182.58	-0.0000E00
182.80	0.0000E00
183.02	0.0000E00
183.23	-0.0000E00
183.45	-0.0000E00
183.67	-0.0000E00
183.89	-0.0000E00
184.11	0.0000E00
184.33	-0.0000E00
184.55	0.0000E00
184.76	0.0000E00
184.98	-0.0000E00
185.20	-0.0000E00
185.42	0.0000E00
185.64	-0.0000E00
185.86	0.0000E00
186.07	-0.0000E00
186.29	-0.0000E00
186.51	-0.0000E00
186.73	0.0000E00
186.95	0.0000E00
187.17	0.0000E00
187.38	-0.0000E00
187.60	0.0000E00
187.82	-0.0000E00
188.04	0.0000E00
188.26	-0.0000E00
188.47	-0.0000E00
188.69	-0.0000E00
188.91	0.0000E00
189.13	-0.0000E00
189.35	-0.0000E00
189.57	0.0000E00
189.78	0.0000E00
190.00	-0.0000E00
190.22	-0.0000E00
190.44	0.0000E00
190.66	-0.0000E00
190.87	0.0000E00
191.09	-0.0000E00
191.31	-0.0000E00
191.53	-0.0000E00
191.75	-0.0000E00
191.97	-0.0000E00
192.18	0.0000E00
192.40	0.0000E00
192.62	0.0000E00
192.84	0.0000E00
193.06	-0.0000E00
193.27	-0.0000E00
193.49	0.0000E00
193.71	0.0000E00
193.93	-0.0000E00
194.15	-0.0000E00
194.36	0.0000E00
194.58	0.0000E00
194.80	0.0000E00
195.02	-0.0000E00
195.23	-0.0000E00
195.45	-0.0000E00
195.67	-0.0000E00
195.89	0.0000E00
196.11	0.0000E00
196.32	0.0000E00
196.54	-0.0000E00
196.76	-0.0000E00
196.98	0.0000E00
197.20	0.0000E00
197.41	-0.0000E00
197.63	0.0000E00
197.85	-0.0000E00
198.07	-0.0000E00
198.28	0.0000E00
198.50	0.0000E00
198.72	-0.0000E00
198.94	0.0000E00
199.16	-0.0000E00
199.37	-0.0000E00
199.59	0.0000E00
199.81	-0.0000E00
200.03	0.0000E00
200.24	0.0000E00
200.46	-0.0000E00
200.68	-0.0000E00
200.90	-0.0000E00
201.11	-0.0000E00
201.33	-0.0000E00
201.55	-0.0000E00
201.77	0.0000E00
201.98	0.0000E00
202.20	0.0000E00
202.42	0.0000E00
202.64	-0.0000E00
202.86	-0.0000E00
203.07	0.0000E00
203.29	-0.0000E00
203.51	0.0000E00
203.73	0.0000E00
203.94	0.0000E00
204.16	-0.0000E00
204.38	0.0000E00
204.60	0.0000E00
204.81	0.0000E00
205.03	-0.0000E00
205.25	0.0000E00
205.46	0.0000E00
205.68	-0.0000E00
205.90	-0.0000E00
206.12	-0.0000E00
206.33	-0.0000E00
206.55	0.0000E00
206.77	-0.0000E00
206.99	-0.0000E00
207.20	0.0000E00
207.42	0.0000E00
207.64	0.0000E00
207.86	0.0000E00
208.07	0.0000E00
208.29	0.0000E00
208.51	0.0000E00
208.72	0.0000E00
208.94	0.0000E00
209.16	0.0000E00
209.38	-0.0000E00
209.59	0.0000E00
209.81	-0.0000E00
210.03	-0.0000E00
210.25	-0.0000E00
210.46	-0.0000E00
210.68	-0.0000E00
210.90	-0.0000E00
211.11	0.0000E00
211.33	-0.0000E00
211.55	-0.0000E00
211.77	-0.0000E00
211.98	0.0000E00
212.20	-0.0000E00
212.42	0.0000E00
212.63	-0.0000E00
212.85	0.0000E00
213.07	-0.0000E00
213.29	0.0000E00
213.50	-0.0000E00
213.72	-0.0000E00
213.94	0.0000E00
214.15	-0.0000E00
214.37	-0.0000E00
214.59	-0.0000E00
214.80	-0.0000E00
215.02	0.0000E00
215.24	0.0000E00
215.45	-0.0000E00
215.67	0.0000E00
215.89	0.0000E00
216.11	-0.0000E00
216.32	-0.0000E00
216.54	-0.0000E00
216.76	-0.0000E00
216.97	0.0000E00
217.19	0.0000E00
217.41	0.0000E00
217.62	0.0000E00
217.84	0.0000E00
218.06	0.0000E00
218.27	0.0000E00
218.49	0.0000E00
218.71	0.0000E00
218.92	0.0000E00
219.14	-0.0000E00
219.36	-0.0000E00
219.57	-0.0000E00
219.79	0.0000E00
220.01	-0.0000E00
220.22	0.0000E00
220.44	-0.0000E00
220.66	-0.0000E00
220.88	0.0000E00
221.09	0.0000E00
221.31	-0.0000E00
221.53	-0.0000E00
221.74	0.0000E00
221.96	-0.0000E00
222.17	0.0000E00
222.39	0.0000E00
222.61	-0.0000E00
222.82	0.0000E00
223.04	0.0000E00
223.26	0.0000E00
223.47	-0.0000E00
223.69	-0.0000E00
223.91	-0.0000E00
224.12	0.0000E00
224.34	-0.0000E00
224.56	0.0000E00
224.77	-0.0000E00
224.99	0.0000E00
225.21	0.0000E00
225.42	0.0000E00
225.64	0.0000E00
225.86	-0.0000E00
226.07	0.0000E00
226.29	0.0000E00
226.50	0.0000E00
226.72	0.0000E00
226.94	0.0000E00
227.15	-0.0000E00
227.37	0.0000E00
227.59	-0.0000E00
227.80	0.0000E00
228.02	-0.0000E00
228.24	-0.0000E00
228.45	0.0000E00
228.67	-0.0000E00
228.88	0.0000E00
229.10	-0.0000E00
229.32	-0.0000E00
229.53	0.0000E00
229.75	-0.0000E00
229.97	0.0000E00
230.18	0.0000E00
230.40	-0.0000E00
230.61	-0.0000E00
230.83	0.0000E00
231.05	0.0000E00
231.26	0.0000E00
231.48	-0.0000E00
231.70	0.0000E00
231.91	-0.0000E00
232.13	-0.0000E00
232.34	0.0000E00
232.56	0.0000E00
232.78	-0.0000E00
232.99	0.0000E00
233.21	0.0000E00
233.42	-0.0000E00
233.64	0.0000E00
233.86	-0.0000E00
234.07	-0.0000E00
234.29	0.0000E00
234.50	-0.0000E00
234.72	-0.0000E00
234.94	-0.0000E00
235.15	0.0000E00
235.37	-0.0000E00
235.58	0.0000E00
235.80	0.0000E00
236.02	0.0000E00
236.23	0.0000E00
236.45	-0.0000E00
236.66	-0.0000E00
236.88	0.0000E00
237.10	0.0000E00
237.31	-0.0000E00
237.53	0.0000E00
237.74	0.0000E00
237.96	0.0000E00
238.17	-0.0000E00
238.39	0.0000E00
238.61	0.0000E00
238.82	-0.0000E00
239.04	-0.0000E00
239.25	-0.0000E00
239.47	-0.0000E00
239.69	-0.0000E00
239.90	-0.0000E00
240.12	0.0000E00
240.33	0.0000E00
240.55	0.0000E00
240.76	0.0000E00
240.98	-0.0000E00
241.20	0.0000E00
241.41	0.0000E00
241.63	-0.0000E00
241.84	-0.0000E00
242.06	0.0000E00
242.27	-0.0000E00
242.49	-0.0000E00
242.70	0.0000E00
242.92	0.0000E00
243.14	0.0000E00
243.35	-0.0000E00
243.57	0.0000E00
243.78	-0.0000E00
244.00	0.0000E00
244.21	-0.0000E00
244.43	0.0000E00
244.64	-0.0000E00
244.86	-0.0000E00
245.08	-0.0000E00
245.29	0.0000E00
245.51	-0.0000E00
245.72	-0.0000E00
245.94	0.0000E00
246.15	0.0000E00
246.37	0.0000E00
246.58	-0.0000E00
246.80	0.0000E00
247.01	0.0000E00
247.23	-0.0000E00
247.45	0.0000E00
247.66	0.0000E00
247.88	0.0000E00
248.09	0.0000E00
248.31	-0.0000E00
248.52	-0.0000E00
248.74	-0.0000E00
248.95	0.0000E00
249.17	0.0000E00
249.38	-0.0000E00
249.60	0.0000E00
249.81	0.0000E00
250.03	0.0000E00
250.24	-0.0000E00
250.46	0.0000E00
250.67	-0.0000E00
250.89	0.0000E00
251.10	-0.0000E00
251.32	0.0000E00
251.53	-0.0000E00
251.75	-0.0000E00
251.97	0.0000E00
252.18	0.0000E00
252.40	-0.0000E00
252.61	0.0000E00
252.83	0.0000E00
253.04	-0.0000E00
253.26	0.0000E00
253.47	-0.0000E00
253.69	0.0000E00
253.90	0.0000E00
254.12	-0.0000E00
254.33	-0.0000E00
254.55	-0.0000E00
254.76	0.0000E00
254.98	0.0000E00
255.19	-0.0000E00
255.41	0.0000E00
255.62	0.0000E00
255.84	-0.0000E00
256.05	-0.0000E00
256.27	0.0000E00
256.48	0.0000E00
256.70	0.0000E00
256.91	-0.0000E00
257.13	0.0000E00
257.34	0.0000E00
257.55	0.0000E00
257.77	0.0000E00
257.98	-0.0000E00
258.20	0.0000E00
258.41	0.0000E00
258.63	-0.0000E00
258.84	-0.0000E00
259.06	0.0000E00
259.27	0.0000E00
259.49	0.0000E00
259.70	0.0000E00
259.92	-0.0000E00
260.13	0.0000E00
260.35	-0.0000E00
260.56	-0.0000E00
260.78	-0.0000E00
260.99	-0.0000E00
261.21	0.0000E00
261.42	-0.0000E00
261.63	-0.0000E00
261.85	-0.0000E00
262.06	-0.0000E00
262.28	0.0000E00
262.49	-0.0000E00
262.71	0.0000E00
262.92	-0.0000E00
263.14	-0.0000E00
263.35	-0.0000E00
263.57	0.0000E00
263.78	0.0000E00
264.00	0.0000E00
264.21	-0.0000E00
264.42	-0.0000E00
264.64	-0.0000E00
264.85	0.0000E00
265.07	-0.0000E00
265.28	0.0000E00
265.50	-0.0000E00
265.71	0.0000E00
265.93	-0.0000E00
266.14	-0.0000E00
266.35	0.0000E00
266.57	0.0000E00
266.78	0.0000E00
267.00	0.0000E00
267.21	0.0000E00
267.43	0.0000E00
267.64	-0.0000E00
267.85	-0.0000E00
268.07	0.0000E00
268.28	0.0000E00
268.50	0.0000E00
268.71	0.0000E00
268.93	0.0000E00
269.14	0.0000E00
269.35	-0.0000E00
269.57	0.0000E00
269.78	0.0000E00
270.00	0.0000E00
270.21	0.0000E00
270.43	-0.0000E00
270.64	0.0000E00
270.85	-0.0000E00
271.07	-0.0000E00
271.28	-0.0000E00
271.50	-0.0000E00
271.71	0.0000E00
271.92	0.0000E00
272.14	0.0000E00
272.35	0.0000E00
272.57	0.0000E00
272.78	-0.0000E00
272.99	0.0000E00
273.21	-0.0000E00
273.42	-0.0000E00
273.64	-0.0000E00
273.85	0.0000E00
274.07	0.0000E00
274.28	-0.0000E00
274.49	0.0000E00
274.71	-0.0000E00
274.92	-0.0000E00
275.13	-0.0000E00
275.35	0.0000E00
275.56	-0.0000E00
275.78	0.0000E00
275.99	-0.0000E00
276.20	-0.0000E00
276.42	-0.0000E00
276.63	-0.0000E00
276.85	-0.0000E00
277.06	-0.0000E00
277.27	0.0000E00
277.49	0.0000E00
277.70	-0.0000E00
277.92	-0.0000E00
278.13	0.0000E00
278.34	0.0000E00
278.56	0.0000E00
278.77	0.0000E00
278.98	0.0000E00
279.20	0.0000E00
279.41	-0.0000E00
279.63	0.0000E00
279.84	-0.0000E00
280.05	-0.0000E00
280.27	-0.0000E00
280.48	0.0000E00
280.69	-0.0000E00
280.91	-0.0000E00
281.12	-0.0000E00
281.33	0.0000E00
281.55	-0.0000E00
281.76	0.0000E00
281.98	0.0000E00
282.19	-0.0000E00
282.40	0.0000E00
282.62	0.0000E00
282.83	-0.0000E00
283.04	-0.0000E00
283.26	0.0000E00
283.47	0.0000E00
283.68	0.0000E00
283.90	-0.0000E00
284.11	0.0000E00
284.32	-0.0000E00
284.54	-0.0000E00
284.75	-0.0000E00
284.96	0.0000E00
285.18	-0.0000E00
285.39	-0.0000E00
285.60	0.0000E00
285.82	-0.0000E00
286.03	-0.0000E00
286.24	0.0000E00
286.46	0.0000E00
286.67	0.0000E00
286.88	0.0000E00
287.10	0.0000E00
287.31	-0.0000E00
287.52	0.0000E00
287.74	-0.0000E00
287.95	0.0000E00
288.16	0.0000E00
288.38	0.0000E00
288.59	-0.0000E00
288.80	0.0000E00
289.02	-0.0000E00
289.23	-0.0000E00
289.44	0.0000E00
289.66	0.0000E00
289.87	0.0000E00
290.08	0.0000E00
290.30	-0.0000E00
290.51	-0.0000E00
290.72	0.0000E00
290.94	0.0000E00
291.15	-0.0000E00
291.36	0.0000E00
291.57	0.0000E00
291.79	0.0000E00
292.00	-0.0000E00
292.21	0.0000E00
292.43	-0.0000E00
292.64	0.0000E00
292.85	0.0000E00
293.07	0.0000E00
293.28	0.0000E00
293.49	-0.0000E00
293.70	0.0000E00
293.92	0.0000E00
294.13	-0.0000E00
294.34	0.0000E00
294.56	0.0000E00
294.77	0.0000E00
294.98	-0.0000E00
295.20	-0.0000E00
295.41	-0.0000E00
295.62	0.0000E00
295.83	-0.0000E00
296.05	0.0000E00
296.26	-0.0000E00
296.47	0.0000E00
296.69	-0.0000E00
296.90	0.0000E00
297.11	0.0000E00
297.32	-0.0000E00
297.54	-0.0000E00
297.75	-0.0000E00
297.96	-0.0000E00
298.17	0.0000E00
298.39	0.0000E00
298.60	0.0000E00
298.81	0.0000E00
299.03	0.0000E00
299.24	0.0000E00
299.45	-0.0000E00
299.66	0.0000E00
299.88	0.0000E00
300.09	4.0554E-04
300.30	-2.2970E-05
300.51	7.4534E-04
300.73	-4.5757E-05
300.94	1.9918E-04
301.15	5.2850E-04
301.36	-1.8587E-04
301.58	1.4388E-04
301.79	1.2219E-03
302.00	3.3557E-04
302.21	9.4805E-05
302.43	7.1758E-04
302.64	5.8929E-05
302.85	8.1188E-04
303.06	-1.6143E-04
303.28	6.6228E-04
303.49	1.6645E-05
303.70	1.2155E-03
303.91	2.1006E-04
304.13	3.9839E-05
304.34	3.8604E-04
304.55	1.3342E-03
304.76	-2.7452E-04
304.98	1.1278E-04
305.19	1.0721E-03
305.40	3.5792E-05
305.61	9.9492E-04
305.82	3.8012E-04
306.04	1.0070E-03
306.25	-1.6580E-05
306.46	1.1480E-03
306.67	2.4576E-04
306.89	5.2588E-04
307.10	1.0000E-03
307.31	9.6668E-04
307.52	6.0893E-04
307.74	1.5357E-03
307.95	1.4125E-03
308.16	-1.7873E-04
308.37	1.0221E-03
308.58	6.2060E-04
308.80	1.3187E-03
309.01	1.1429E-03
309.22	6.9748E-06
309.43	4.2542E-04
309.64	1.1670E-03
309.86	1.5577E-03
310.07	7.8912E-04
310.28	1.2215E-03
310.49	1.3771E-03
310.70	5.1008E-04
310.92	1.2878E-03
311.13	7.4081E-04
311.34	1.0843E-03
311.55	1.2543E-03
311.76	1.0200E-03
311.98	1.5505E-03
312.19	1.3233E-03
312.40	7.0089E-04
312.61	9.9852E-04
312.82	1.3788E-03
313.04	6.6642E-04
313.25	1.5058E-03
313.46	9.2640E-04
313.67	9.7151E-04
313.88	1.0427E-03
314.10	8.9396E-04
314.31	8.9523E-04
314.52	9.0250E-04
314.73	9.7855E-04
314.94	1.1860E-03
315.16	1.8309E-03
315.37	1.9966E-03
315.58	1.3442E-03
315.79	1.6404E-03
316.00	1.7000E-03
316.21	1.7733E-03
316.43	8.3654E-04
316.64	1.1463E-03
316.85	8.0370E-04
317.06	1.4334E-03
317.27	1.6782E-03
317.48	1.1298E-03
317.70	1.2671E-03
317.91	1.2648E-03
318.12	1.5136E-03
318.33	1.0307E-03
318.54	1.2396E-03
318.75	1.6656E-03
318.97	1.7499E-03
319.18	1.5408E-03
319.39	1.4581E-03
319.60	1.3947E-03
319.81	1.7466E-03
320.02	1.4160E-03
320.24	1.3367E-03
320.45	1.5128E-03
320.66	1.0189E-03
320.87	1.4790E-03
321.08	1.8598E-03
321.29	1.7026E-03
321.50	1.3101E-03
321.72	1.1471E-03
321.93	1.8117E-03
322.14	1.7104E-03
322.35	1.7600E-03
322.56	2.0844E-03
322.77	2.3948E-03
322.98	1.8024E-03
323.20	2.2353E-03
323.41	1.4892E-03
323.62	1.4403E-03
323.83	1.7198E-03
324.04	1.3835E-03
324.25	1.3164E-03
324.46	1.8140E-03
324.67	1.7099E-03
324.89	1.5258E-03
325.10	1.5917E-03
325.31	2.1807E-03
325.52	2.2661E-03
325.73	1.8108E-03
325.94	2.0337E-03
326.15	1.3733E-03
326.36	2.3076E-03
326.58	3.0028E-03
326.79	2.5138E-03
327.00	1.0481E-03
327.21	2.2560E-03
327.42	2.2358E-03
327.63	2.3061E-03
327.84	2.3108E-03
328.05	2.6518E-03
328.26	1.7380E-03
328.48	2.3008E-03
328.69	3.2730E-03
328.90	2.3623E-03
329.11	2.4400E-03
329.32	2.4799E-03
329.53	1.8617E-03
329.74	2.4585E-03
329.95	2.5573E-03
330.16	2.3022E-03
330.37	2.2340E-03
330.59	2.8803E-03
330.80	3.0714E-03
331.01	3.0712E-03
331.22	3.1057E-03
331.43	2.5783E-03
331.64	2.1540E-03
331.85	3.2831E-03
332.06	3.1301E-03
332.27	2.6137E-03
332.48	3.6363E-03
332.69	2.8281E-03
332.91	3.2890E-03
333.12	2.7967E-03
333.33	4.1946E-03
333.54	2.6273E-03
333.75	1.9895E-03
333.96	2.6033E-03
334.17	2.0699E-03
334.38	2.7476E-03
334.59	3.8828E-03
334.80	2.7336E-03
335.01	2.7804E-03
335.22	2.5224E-03
335.43	2.6693E-03
335.64	2.8660E-03
335.86	3.5327E-03
336.07	2.8941E-03
336.28	1.8599E-03
336.49	3.7846E-03
336.70	2.5252E-03
336.91	2.8187E-03
337.12	2.4229E-03
337.33	3.0687E-03
337.54	2.6915E-03
337.75	2.5417E-03
337.96	3.2359E-03
338.17	3.2241E-03
338.38	2.6879E-03
338.59	3.2916E-03
338.80	2.0099E-03
339.01	3.6270E-03
339.22	3.5056E-03
339.43	3.4845E-03
339.65	3.2724E-03
339.86	2.7115E-03
340.07	2.7999E-03
340.28	3.3800E-03
340.49	2.6909E-03
340.70	3.1616E-03
340.91	2.6495E-03
341.12	2.4053E-03
341.33	3.2463E-03
341.54	3.3649E-03
341.75	2.6389E-03
341.96	2.9141E-03
342.17	3.4033E-03
342.38	2.5963E-03
342.59	2.8602E-03
342.80	2.8199E-03
343.01	3.3588E-03
343.22	3.1978E-03
343.43	2.7719E-03
343.64	2.8551E-03
343.85	2.8640E-03
344.06	2.6513E-03
344.27	3.3940E-03
344.48	4.2824E-03
344.69	3.3725E-03
344.90	3.4482E-03
345.11	3.5179E-03
345.32	3.2233E-03
345.53	2.3234E-03
345.74	3.6805E-03
345.95	2.6029E-03
346.16	3.2128E-03
346.37	3.3080E-03
346.58	3.3954E-03
346.79	2.8522E-03
347.00	3.9380E-03
347.21	4.1394E-03
347.42	3.1407E-03
347.63	2.5272E-03
347.84	3.5294E-03
348.05	3.9626E-03
348.26	3.3070E-03
348.47	3.7287E-03
348.68	3.4331E-03
348.89	2.3476E-03
349.10	3.4123E-03
349.31	4.2784E-03
349.52	3.0020E-03
349.73	3.4947E-03
349.94	3.6146E-03
350.15	3.0023E-03
350.36	4.1013E-03
350.57	3.9794E-03
350.78	4.1939E-03
350.99	4.1314E-03
351.20	3.7343E-03
351.41	4.3450E-03
351.62	3.4722E-03
351.83	3.5023E-03
352.04	3.5651E-03
352.25	3.7790E-03
352.46	3.4221E-03
352.67	3.2583E-03
352.88	4.0733E-03
353.09	2.3905E-03
353.30	3.1903E-03
353.51	3.6390E-03
353.72	4.4557E-03
353.93	3.2625E-03
354.14	3.0937E-03
354.35	4.1400E-03
354.56	3.5894E-03
354.77	4.7674E-03
354.98	3.1409E-03
355.19	3.6671E-03
355.39	3.5330E-03
355.60	3.4063E-03
355.81	3.8114E-03
356.02	4.4691E-03
356.23	3.0148E-03
356.44	2.6373E-03
356.65	4.3817E-03
356.86	3.6220E-03
357.07	3.3876E-03
357.28	4.1574E-03
357.49	3.8526E-03
357.70	4.2872E-03
357.91	3.0106E-03
358.12	2.8380E-03
358.33	3.7099E-03
358.54	4.1178E-03
358.75	3.5826E-03
358.96	3.9426E-03
359.16	2.5227E-03
359.37	4.3531E-03
359.58	3.8566E-03
359.79	3.2360E-03
360.00	3.5016E-03
360.21	3.8155E-03
360.42	3.1910E-03
360.63	4.8054E-03
360.84	4.6571E-03
361.05	2.8978E-03
361.26	3.5231E-03
361.47	4.6466E-03
361.68	3.7817E-03
361.88	4.0071E-03
362.09	3.5962E-03
362.30	4.3835E-03
362.51	3.6097E-03
362.72	4.5386E-03
362.93	3.9658E-03
363.14	4.2539E-03
363.35	3.8982E-03
363.56	3.5562E-03
363.77	4.3977E-03
363.98	4.2499E-03
364.18	5.0377E-03
364.39	4.6877E-03
364.60	4.3524E-03
364.81	4.6628E-03
365.02	4.4550E-03
365.23	4.7816E-03
365.44	4.5634E-03
365.65	4.2338E-03
365.86	3.5606E-03
366.07	4.8589E-03
366.27	4.5650E-03
366.48	4.8984E-03
366.69	4.4951E-03
366.90	4.7025E-03
367.11	4.5720E-03
367.32	4.6464E-03
367.53	4.5749E-03
367.74	3.9523E-03
367.95	3.9766E-03
368.15	4.5903E-03
368.36	4.7317E-03
368.57	3.6815E-03
368.78	5.0907E-03
368.99	4.4487E-03
369.20	4.0998E-03
369.41	5.3998E-03
369.62	4.6451E-03
369.82	5.5345E-03
370.03	4.3602E-03
370.24	5.2231E-03
370.45	4.2981E-03
370.66	3.7642E-03
370.87	4.0594E-03
371.08	4.1523E-03
371.28	4.2067E-03
371.49	4.3371E-03
371.70	4.1636E-03
371.91	4.0492E-03
372.12	3.7523E-03
372.33	4.0073E-03
372.54	4.3134E-03
372.74	4.3933E-03
372.95	3.2649E-03
373.16	4.6236E-03
373.37	4.5351E-03
373.58	3.4795E-03
373.79	4.5411E-03
374.00	3.8449E-03
374.20	4.9142E-03
374.41	4.8011E-03
374.62	3.9622E-03
374.83	4.0381E-03
375.04	4.4066E-03
375.25	4.5217E-03
375.45	3.2393E-03
375.66	4.6884E-03
375.87	4.3667E-03
376.08	5.1112E-03
376.29	4.9941E-03
376.50	4.6563E-03
376.70	4.1042E-03
376.91	4.6065E-03
377.12	4.6057E-03
377.33	3.6199E-03
377.54	3.9523E-03
377.75	4.9466E-03
377.95	4.2994E-03
378.16	4.3482E-03
378.37	3.7231E-03
378.58	4.6712E-03
378.79	3.5774E-03
379.00	4.8602E-03
379.20	4.0188E-03
379.41	4.5629E-03
379.62	4.6863E-03
379.83	4.1840E-03
380.04	4.3194E-03
380.24	4.3350E-03
380.45	3.2434E-03
380.66	3.8506E-03
380.87	4.2677E-03
381.08	4.4383E-03
381.28	3.6314E-03
381.49	4.2580E-03
381.70	3.7277E-03
381.91	3.9836E-03
382.12	4.3882E-03
382.32	3.7683E-03
382.53	4.4754E-03
382.74	3.6000E-03
382.95	4.0504E-03
383.16	4.3355E-03
383.36	3.1515E-03
383.57	4.1916E-03
383.78	4.5262E-03
383.99	3.6796E-03
384.20	3.9818E-03
384.40	4.0631E-03
384.61	4.8474E-03
384.82	4.9813E-03
385.03	4.6221E-03
385.23	4.6821E-03
385.44	4.4658E-03
385.65	5.0797E-03
385.86	4.1398E-03
386.07	5.8334E-03
386.27	3.6993E-03
386.48	4.3985E-03
386.69	5.0276E-03
386.90	3.4366E-03
387.10	4.1540E-03
387.31	5.0423E-03
387.52	4.2211E-03
387.73	4.7647E-03
387.94	5.1942E-03
388.14	4.0194E-03
388.35	4.5125E-03
388.56	5.9438E-03
388.77	5.0531E-03
388.97	5.2547E-03
389.18	5.5346E-03
389.39	4.8979E-03
389.60	5.2882E-03
389.80	5.9050E-03
390.01	5.5975E-03
390.22	5.4964E-03
390.43	4.5599E-03
390.63	4.9815E-03
390.84	4.9666E-03
391.05	5.9033E-03
391.26	5.0842E-03
391.46	4.8262E-03
391.67	4.7980E-03
391.88	3.9107E-03
392.09	3.9850E-03
392.29	5.2302E-03
392.50	4.3823E-03
392.71	4.9185E-03
392.92	5.2208E-03
393.12	5.1702E-03
393.33	5.6257E-03
393.54	4.7751E-03
393.74	4.1686E-03
393.95	4.5234E-03
394.16	5.5966E-03
394.37	4.9210E-03
394.57	4.8342E-03
394.78	5.3827E-03
394.99	5.1532E-03
395.19	4.8005E-03
395.40	4.7280E-03
395.61	4.6585E-03
395.82	5.5845E-03
396.02	4.9054E-03
396.23	5.5861E-03
396.44	5.8197E-03
396.65	4.7917E-03
396.85	5.9493E-03
397.06	5.5636E-03
397.27	5.5989E-03
397.47	6.0611E-03
397.68	5.6622E-03
397.89	5.1936E-03
398.09	5.0187E-03
398.30	5.3744E-03
398.51	4.9047E-03
398.72	5.4681E-03
398.92	6.2543E-03
399.13	6.1510E-03
399.34	6.9379E-03
399.54	6.9289E-03
399.75	6.6308E-03
399.96	5.6307E-03
400.16	5.7912E-03
400.37	6.4192E-03
400.58	6.3251E-03
400.78	6.7218E-03
400.99	5.9119E-03
401.20	7.0469E-03
401.41	6.7911E-03
401.61	5.9306E-03
401.82	6.6192E-03
402.03	6.0563E-03
402.23	6.0198E-03
402.44	6.8483E-03
402.65	6.3488E-03
402.85	6.5027E-03
403.06	6.4072E-03
403.27	6.4501E-03
403.47	6.5944E-03
403.68	6.0585E-03
403.89	6.8513E-03
404.09	6.3909E-03
404.30	5.7655E-03
404.51	6.7382E-03
404.71	6.7384E-03
404.92	7.0700E-03
405.13	5.5943E-03
405.33	6.0570E-03
405.54	6.0954E-03
405.75	6.6115E-03
405.95	6.4570E-03
406.16	5.2736E-03
406.37	6.4469E-03
406.57	6.4435E-03
406.78	6.8624E-03
406.99	6.6055E-03
407.19	7.0308E-03
407.40	7.1519E-03
407.60	6.9412E-03
407.81	6.8667E-03
408.02	6.1792E-03
408.22	6.2163E-03
408.43	7.1909E-03
408.64	6.7731E-03
408.84	6.6853E-03
409.05	5.6904E-03
409.26	7.2478E-03
409.46	7.0578E-03
409.67	6.6869E-03
409.87	7.1173E-03
410.08	6.5893E-03
410.29	7.5329E-03
410.49	6.1487E-03
410.70	7.0868E-03
410.91	6.7091E-03
411.11	7.3775E-03
411.32	6.8967E-03
411.52	6.0863E-03
411.73	7.2971E-03
411.94	7.0275E-03
412.14	7.4535E-03
412.35	6.6927E-03
412.56	7.4051E-03
412.76	7.3845E-03
412.97	6.4802E-03
413.17	7.1257E-03
413.38	7.6098E-03
413.59	6.6655E-03
413.79	6.8585E-03
414.00	7.2896E-03
414.20	7.6247E-03
414.41	6.3871E-03
414.62	7.4209E-03
414.82	6.8003E-03
415.03	6.1635E-03
415.23	7.3460E-03
415.44	6.5702E-03
415.65	7.2545E-03
415.85	6.5384E-03
416.06	7.5088E-03
416.26	7.2732E-03
416.47	7.2610E-03
416.68	7.7422E-03
416.88	8.0542E-03
417.09	6.0453E-03
417.29	7.1897E-03
417.50	7.5835E-03
417.71	7.4040E-03
417.91	7.2240E-03
418.12	7.2788E-03
418.32	7.8078E-03
418.53	7.8478E-03
418.73	6.8875E-03
418.94	7.0992E-03
419.15	6.9852E-03
419.35	7.8177E-03
419.56	7.4213E-03
419.76	6.4414E-03
419.97	8.1525E-03
420.17	7.1934E-03
420.38	6.2647E-03
420.59	7.7096E-03
420.79	8.1118E-03
421.00	7.0764E-03
421.20	6.3503E-03
421.41	7.1709E-03
421.61	6.8891E-03
421.82	7.4521E-03
422.02	7.1621E-03
422.23	5.8520E-03
422.44	7.9386E-03
422.64	6.7749E-03
422.85	7.1060E-03
423.05	7.2928E-03
423.26	7.3281E-03
423.46	7.2771E-03
423.67	6.7991E-03
423.87	7.1399E-03
424.08	6.8831E-03
424.29	7.0365E-03
424.49	7.8558E-03
424.70	6.4834E-03
424.90	7.5958E-03
425.11	7.7293E-03
425.31	7.5848E-03
425.52	7.8105E-03
425.72	7.0805E-03
425.93	7.3979E-03
426.13	7.0609E-03
426.34	7.0728E-03
426.54	7.3825E-03
426.75	7.3169E-03
426.95	7.5258E-03
427.16	7.6794E-03
427.36	7.4526E-03
427.57	6.7788E-03
427.78	6.8920E-03
427.98	6.8801E-03
428.19	7.2812E-03
428.39	6.7060E-03
428.60	6.7281E-03
428.80	6.8177E-03
429.01	7.5902E-03
429.21	6.0523E-03
429.42	7.7335E-03
429.62	7.5797E-03
429.83	7.0546E-03
430.03	6.3482E-03
430.24	7.4325E-03
430.44	6.5276E-03
430.65	7.2471E-03
430.85	7.4195E-03
431.06	6.8293E-03
431.26	7.4555E-03
431.47	6.3158E-03
431.67	8.1486E-03
431.88	7.4543E-03
432.08	7.6972E-03
432.29	7.8286E-03
432.49	7.1290E-03
432.70	7.2038E-03
432.90	8.1870E-03
433.11	7.8288E-03
433.31	6.5418E-03
433.52	7.7589E-03
433.72	7.3166E-03
433.93	7.5709E-03
434.13	7.5461E-03
434.34	8.5334E-03
434.54	7.1728E-03
434.74	7.6978E-03
434.95	7.8236E-03
435.15	7.6805E-03
435.36	7.8267E-03
435.56	7.1855E-03
435.77	7.9014E-03
435.97	7.3416E-03
436.18	9.0864E-03
436.38	8.2629E-03
436.59	7.5778E-03
436.79	8.4558E-03
437.00	8.3902E-03
437.20	7.7951E-03
437.41	7.5451E-03
437.61	8.2767E-03
437.81	7.9586E-03
438.02	7.7475E-03
438.22	8.0947E-03
438.43	7.4089E-03
438.63	8.7098E-03
438.84	7.8721E-03
439.04	7.7464E-03
439.25	7.9903E-03
439.45	7.3757E-03
439.66	7.5015E-03
439.86	7.7046E-03
440.06	8.7728E-03
440.27	7.6245E-03
440.47	7.1815E-03
440.68	8.3167E-03
440.88	7.9305E-03
441.09	8.3555E-03
441.29	8.4838E-03
441.49	8.1510E-03
441.70	8.8883E-03
441.90	8.0828E-03
442.11	8.6857E-03
442.31	9.0562E-03
442.52	8.5089E-03
442.72	7.8782E-03
442.92	7.7601E-03
443.13	8.6394E-03
443.33	7.7317E-03
443.54	8.2362E-03
443.74	8.3630E-03
443.95	8.7515E-03
444.15	8.4007E-03
444.35	8.9692E-03
444.56	8.2137E-03
444.76	7.8313E-03
444.97	9.6516E-03
445.17	8.9750E-03
445.37	9.6941E-03
445.58	8.0938E-03
445.78	8.6168E-03
445.99	8.0057E-03
446.19	8.0712E-03
446.39	8.2011E-03
446.60	7.8088E-03
446.80	7.9882E-03
447.01	8.7038E-03
447.21	9.3446E-03
447.41	8.0410E-03
447.62	9.1093E-03
447.82	8.5577E-03
448.03	9.0648E-03
448.23	8.8919E-03
448.43	8.8565E-03
448.64	9.2992E-03
448.84	9.0250E-03
449.05	8.4967E-03
449.25	9.1823E-03
449.45	8.5810E-03
449.66	8.9237E-03
449.86	8.8768E-03
450.07	8.3415E-03
450.27	9.0973E-03
450.47	8.5387E-03
450.68	9.0790E-03
450.88	8.5035E-03
451.08	8.9041E-03
451.29	8.8283E-03
451.49	9.2620E-03
451.70	9.0276E-03
451.90	9.4403E-03
452.10	9.1621E-03
452.31	8.1905E-03
452.51	9.0389E-03
452.71	8.8291E-03
452.92	8.8937E-03
453.12	9.4455E-03
453.32	9.0555E-03
453.53	8.0499E-03
453.73	8.0883E-03
453.93	8.1284E-03
454.14	9.1830E-03
454.34	9.0946E-03
454.55	9.2831E-03
454.75	9.1775E-03
454.95	8.2134E-03
455.16	9.8346E-03
455.36	8.4089E-03
455.56	9.7510E-03
455.77	9.4807E-03
455.97	9.2759E-03
456.17	8.6543E-03
456.38	9.4082E-03
456.58	9.9485E-03
456.78	9.1190E-03
456.99	8.1644E-03
457.19	9.1001E-03
457.39	8.9198E-03
457.60	9.2854E-03
457.80	9.0591E-03
458.00	8.8834E-03
458.21	9.7733E-03
458.41	9.5778E-03
458.61	8.9687E-03
458.82	8.8456E-03
459.02	8.4503E-03
459.22	9.8365E-03
459.43	9.6337E-03
459.63	9.3888E-03
459.83	8.6204E-03
460.03	9.3385E-03
460.24	9.5136E-03
460.44	8.7619E-03
460.64	8.4753E-03
460.85	9.5026E-03
461.05	9.0401E-03
461.25	9.2856E-03
461.46	8.8488E-03
461.66	8.4163E-03
461.86	9.1616E-03
462.07	9.6368E-03
462.27	9.2040E-03
462.47	9.7994E-03
462.67	9.1004E-03
462.88	9.7132E-03
463.08	8.4637E-03
463.28	9.2805E-03
463.49	9.6252E-03
463.69	9.4871E-03
463.89	9.2743E-03
464.09	9.3767E-03
464.30	9.0686E-03
464.50	9.8083E-03
464.70	9.6024E-03
464.91	8.5719E-03
465.11	8.6503E-03
465.31	8.5630E-03
465.51	9.1272E-03
465.72	9.1299E-03
465.92	8.8850E-03
466.12	8.2391E-03
466.33	8.8795E-03
466.53	8.8762E-03
466.73	8.7370E-03
466.93	9.1049E-03
467.14	8.2800E-03
467.34	9.9580E-03
467.54	9.1078E-03
467.74	8.9116E-03
467.95	8.7361E-03
468.15	8.4450E-03
468.35	9.1543E-03
468.55	9.4869E-03
468.76	9.1847E-03
468.96	8.2593E-03
469.16	8.6990E-03
469.37	8.6451E-03
469.57	9.1371E-03
469.77	8.5782E-03
469.97	8.8468E-03
470.18	9.3684E-03
470.38	9.3431E-03
470.58	8.9000E-03
470.78	9.2116E-03
470.99	9.3501E-03
471.19	8.5777E-03
471.39	8.9178E-03
471.59	8.0545E-03
471.79	8.6178E-03
472.00	8.7995E-03
472.20	8.9906E-03
472.40	8.2013E-03
472.60	8.6783E-03
472.81	9.5107E-03
473.01	9.2735E-03
473.21	8.5295E-03
473.41	7.6806E-03
473.62	8.8802E-03
473.82	9.2875E-03
474.02	8.7534E-03
474.22	8.7869E-03
474.42	9.6122E-03
474.63	9.0434E-03
474.83	8.8763E-03
475.03	8.7916E-03
475.23	9.1188E-03
475.44	8.9947E-03
475.64	8.5673E-03
475.84	8.9345E-03
476.04	8.5729E-03
476.24	8.9932E-03
476.45	9.0287E-03
476.65	8.5045E-03
476.85	8.4573E-03
477.05	8.9837E-03
477.25	9.3092E-03
477.46	8.8928E-03
477.66	8.7627E-03
477.86	9.2446E-03
478.06	8.6777E-03
478.26	9.0531E-03
478.47	8.8444E-03
478.67	1.0132E-02
478.87	8.7663E-03
479.07	8.3795E-03
479.27	9.0901E-03
479.47	9.1798E-03
479.68	9.1627E-03
479.88	9.2243E-03
480.08	8.9969E-03
480.28	9.2025E-03
480.48	8.9622E-03
480.69	9.4787E-03
480.89	8.6732E-03
481.09	9.0142E-03
481.29	9.5878E-03
481.49	8.0158E-03
481.69	9.1205E-03
481.90	8.9901E-03
482.10	8.9442E-03
482.30	9.0365E-03
482.50	9.0115E-03
482.70	8.6508E-03
482.90	8.6824E-03
483.11	8.8233E-03
483.31	8.7880E-03
483.51	8.0393E-03
483.71	8.2048E-03
483.91	8.3249E-03
484.11	8.5230E-03
484.32	8.3507E-03
484.52	8.6468E-03
484.72	8.5179E-03
484.92	8.2725E-03
485.12	8.1947E-03
485.32	8.1797E-03
485.52	7.9930E-03
485.73	7.7400E-03
485.93	7.7474E-03
486.13	7.7881E-03
486.33	8.0121E-03
486.53	8.2509E-03
486.73	8.4031E-03
486.93	8.0056E-03
487.14	8.6807E-03
487.34	8.4567E-03
487.54	8.4872E-03
487.74	8.6761E-03
487.94	7.7826E-03
488.14	8.5076E-03
488.34	8.5008E-03
488.54	8.4747E-03
488.75	8.3270E-03
488.95	8.5127E-03
489.15	8.3402E-03
489.35	8.1953E-03
489.55	8.3670E-03
489.75	8.6080E-03
489.95	8.3528E-03
490.15	8.3846E-03
490.36	8.6655E-03
490.56	8.3765E-03
490.76	8.8300E-03
490.96	8.4965E-03
491.16	8.7354E-03
491.36	8.5498E-03
491.56	8.4928E-03
491.76	7.8123E-03
491.96	8.5091E-03
492.17	8.3145E-03
492.37	8.5974E-03
492.57	8.7552E-03
492.77	8.7983E-03
492.97	8.9535E-03
493.17	8.7027E-03
493.37	8.6665E-03
493.57	8.4613E-03
493.77	8.3664E-03
493.97	9.0434E-03
494.17	8.5297E-03
494.38	8.7593E-03
494.58	8.4775E-03
494.78	8.4506E-03
494.98	8.4700E-03
495.18	8.7098E-03
495.38	8.6861E-03
495.58	8.8887E-03
495.78	8.9639E-03
495.98	9.1484E-03
496.18	9.0236E-03
496.38	8.7343E-03
496.58	8.3610E-03
496.78	9.1953E-03
496.99	8.6863E-03
497.19	9.0079E-03
497.39	9.2661E-03
497.59	8.9868E-03
497.79	8.5681E-03
497.99	9.0606E-03
498.19	9.0947E-03
498.39	9.2414E-03
498.59	8.8015E-03
498.79	8.7208E-03
498.99	8.7843E-03
499.19	9.0275E-03
499.39	9.1163E-03
499.59	8.6946E-03
499.79	8.7382E-03
499.99	8.7400E-03
500.19	9.0983E-03
500.40	8.8428E-03
500.60	9.0447E-03
500.80	9.0970E-03
501.00	8.8324E-03
501.20	8.8257E-03
501.40	9.2329E-03
501.60	8.9018E-03
501.80	8.8944E-03
502.00	9.1732E-03
502.20	8.9709E-03
502.40	8.9962E-03
502.60	8.6701E-03
502.80	9.5266E-03
503.00	9.3038E-03
503.20	9.0513E-03
503.40	8.9212E-03
503.60	9.1513E-03
503.80	9.6040E-03
504.00	9.3801E-03
504.20	9.7138E-03
504.40	9.6632E-03
504.60	9.9648E-03
504.80	9.9750E-03
505.00	9.8879E-03
505.20	1.0229E-02
505.40	1.0034E-02
505.60	9.9326E-03
505.80	1.0195E-02
506.00	1.0243E-02
506.20	1.0201E-02
506.40	1.0275E-02
506.60	1.0344E-02
506.80	1.0060E-02
507.00	1.0433E-02
507.20	1.0660E-02
507.40	1.0950E-02
507.60	1.0594E-02
507.80	1.0823E-02
508.00	1.0896E-02
508.20	1.1335E-02
508.40	1.1124E-02
508.60	1.0820E-02
508.80	1.0620E-02
509.00	1.1594E-02
509.20	1.1300E-02
509.40	1.1141E-02
509.60	1.1391E-02
509.80	1.1216E-02
510.00	1.1856E-02
510.20	1.1723E-02
510.40	1.1897E-02
510.60	1.1575E-02
510.80	1.1457E-02
511.00	1.1514E-02
511.20	1.2289E-02
511.40	1.1787E-02
511.60	1.1904E-02
511.80	1.2042E-02
512.00	1.2077E-02
512.20	1.2318E-02
512.40	1.2012E-02
512.60	1.2179E-02
512.80	1.2237E-02
513.00	1.2587E-02
513.20	1.2487E-02
513.40	1.2213E-02
513.59	1.2051E-02
513.79	1.2506E-02
513.99	1.2381E-02
514.19	1.2512E-02
514.39	1.2353E-02
514.59	1.2708E-02
514.79	1.2399E-02
514.99	1.2346E-02
515.19	1.2564E-02
515.39	1.2665E-02
515.59	1.2752E-02
515.79	1.2102E-02
515.99	1.2935E-02
516.19	1.2830E-02
516.39	1.2701E-02
516.59	1.2892E-02
516.79	1.3268E-02
516.98	1.2614E-02
517.18	1.3279E-02
517.38	1.3203E-02
517.58	1.3282E-02
517.78	1.3316E-02
517.98	1.3442E-02
518.18	1.3619E-02
518.38	1.4363E-02
518.58	1.3887E-02
518.78	1.3896E-02
518.98	1.3975E-02
519.18	1.4332E-02
519.38	1.4720E-02
519.57	1.4644E-02
519.77	1.4417E-02
519.97	1.4966E-02
520.17	1.4930E-02
520.37	1.5036E-02
520.57	1.5404E-02
520.77	1.5590E-02
520.97	1.5619E-02
521.17	1.5559E-02
521.37	1.6010E-02
521.57	1.6310E-02
521.76	1.5909E-02
521.96	1.6390E-02
522.16	1.6276E-02
522.36	1.6890E-02
522.56	1.6170E-02
522.76	1.6581E-02
522.96	1.7080E-02
523.16	1.6842E-02
523.36	1.7248E-02
523.55	1.6855E-02
523.75	1.7027E-02
523.95	1.7063E-02
524.15	1.6785E-02
524.35	1.7098E-02
524.55	1.7206E-02
524.75	1.7521E-02
524.95	1.7642E-02
525.14	1.7414E-02
525.34	1.7315E-02
525.54	1.7029E-02
525.74	1.7469E-02
525.94	1.7670E-02
526.14	1.8103E-02
526.34	1.8048E-02
526.54	1.8495E-02
526.73	1.7866E-02
526.93	1.8501E-02
527.13	1.8624E-02
527.33	1.8724E-02
527.53	1.9020E-02
527.73	1.8696E-02
527.93	1.9154E-02
528.12	1.8643E-02
528.32	1.9034E-02
528.52	1.9633E-02
528.72	1.9864E-02
528.92	1.9586E-02
529.12	1.9671E-02
529.32	1.9880E-02
529.51	2.0102E-02
529.71	2.0176E-02
529.91	2.0131E-02
530.11	2.0484E-02
530.31	2.0992E-02
530.51	2.0443E-02
530.70	2.0457E-02
530.90	2.0913E-02
531.10	2.0724E-02
531.30	2.1023E-02
531.50	2.1001E-02
531.70	2.1203E-02
531.89	2.0790E-02
532.09	2.0962E-02
532.29	2.0948E-02
532.49	2.1598E-02
532.69	2.1415E-02
532.88	2.1334E-02
533.08	2.0999E-02
533.28	2.1337E-02
533.48	2.1947E-02
533.68	2.1689E-02
533.88	2.2366E-02
534.07	2.2306E-02
534.27	2.2265E-02
534.47	2.2565E-02
534.67	2.1759E-02
534.87	2.2429E-02
535.06	2.2355E-02
535.26	2.2109E-02
535.46	2.1974E-02
535.66	2.3035E-02
535.86	2.2320E-02
536.05	2.2314E-02
536.25	2.2528E-02
536.45	2.2644E-02
536.65	2.2531E-02
536.85	2.2312E-02
537.04	2.2686E-02
537.24	2.3243E-02
537.44	2.2140E-02
537.64	2.1886E-02
537.83	2.2792E-02
538.03	2.2893E-02
538.23	2.3284E-02
538.43	2.3137E-02
538.63	2.2554E-02
538.82	2.2847E-02
539.02	2.2890E-02
539.22	2.3300E-02
539.42	2.2771E-02
539.61	2.3249E-02
539.81	2.3353E-02
540.01	2.2818E-02
540.21	2.3179E-02
540.41	2.3014E-02
540.60	2.3163E-02
540.80	2.3184E-02
541.00	2.3182E-02
541.20	2.3668E-02
541.39	2.3510E-02
541.59	2.3489E-02
541.79	2.3633E-02
541.99	2.4122E-02
542.18	2.3832E-02
542.38	2.3780E-02
542.58	2.3769E-02
542.78	2.4049E-02
542.97	2.3527E-02
543.17	2.4132E-02
543.37	2.3723E-02
543.57	2.4534E-02
543.76	2.5064E-02
543.96	2.4782E-02
544.16	2.4307E-02
544.36	2.4639E-02
544.55	2.5372E-02
544.75	2.4992E-02
544.95	2.5377E-02
545.14	2.4339E-02
545.34	2.5469E-02
545.54	2.4907E-02
545.74	2.5149E-02
545.93	2.5634E-02
546.13	2.5513E-02
546.33	2.5101E-02
546.53	2.4970E-02
546.72	2.5871E-02
546.92	2.5901E-02
547.12	2.5468E-02
547.31	2.5898E-02
547.51	2.5680E-02
547.71	2.6237E-02
547.91	2.6154E-02
548.10	2.5312E-02
548.30	2.5658E-02
548.50	2.6439E-02
548.69	2.6179E-02
548.89	2.6019E-02
549.09	2.6098E-02
549.29	2.5865E-02
549.48	2.7085E-02
549.68	2.5771E-02
549.88	2.6570E-02
550.07	2.6765E-02
550.27	2.6625E-02
550.47	2.4172E-02
550.66	2.7369E-02
550.86	2.5961E-02
551.06	2.7261E-02
551.25	2.6364E-02
551.45	2.7200E-02
551.65	2.7262E-02
551.85	2.7723E-02
552.04	2.6283E-02
552.24	2.7087E-02
552.44	2.6647E-02
552.63	2.6645E-02
552.83	2.7266E-02
553.03	2.6483E-02
553.22	2.7717E-02
553.42	2.6936E-02
553.62	2.7995E-02
553.81	2.7063E-02
554.01	2.7604E-02
554.21	2.6823E-02
554.40	2.7382E-02
554.60	2.7140E-02
554.80	2.7551E-02
554.99	2.7507E-02
555.19	2.7399E-02
555.39	2.7610E-02
555.58	2.7048E-02
555.78	2.7262E-02
555.98	2.7001E-02
556.17	2.6960E-02
556.37	2.7248E-02
556.56	2.7291E-02
556.76	2.7246E-02
556.96	2.6715E-02
557.15	2.7117E-02
557.35	2.6890E-02
557.55	2.6853E-02
557.74	2.6723E-02
557.94	2.7189E-02
558.14	2.7471E-02
558.33	2.6676E-02
558.53	2.6569E-02
558.73	2.7029E-02
558.92	2.6446E-02
559.12	2.7528E-02
559.31	2.7606E-02
559.51	2.7989E-02
559.71	2.7256E-02
559.90	2.7652E-02
560.10	2.7586E-02
560.30	2.7469E-02
560.49	2.7069E-02
560.69	2.7587E-02
560.88	2.7973E-02
561.08	2.6846E-02
561.28	2.7014E-02
561.47	2.7586E-02
561.67	2.7565E-02
561.86	2.7053E-02
562.06	2.7357E-02
562.26	2.7725E-02
562.45	2.7240E-02
562.65	2.7524E-02
562.84	2.6609E-02
563.04	2.6927E-02
563.24	2.6845E-02
563.43	2.7619E-02
563.63	2.7513E-02
563.82	2.7061E-02
564.02	2.7461E-02
564.22	2.7671E-02
564.41	2.6807E-02
564.61	2.7321E-02
564.80	2.7388E-02
565.00	2.6919E-02
565.20	2.7667E-02
565.39	2.6613E-02
565.59	2.6230E-02
565.78	2.6982E-02
565.98	2.6198E-02
566.18	2.7336E-02
566.37	2.6855E-02
566.57	2.6575E-02
566.76	2.6342E-02
566.96	2.7184E-02
567.15	2.6452E-02
567.35	2.7507E-02
567.55	2.6790E-02
567.74	2.6924E-02
567.94	2.6408E-02
568.13	2.6961E-02
568.33	2.7435E-02
568.52	2.7213E-02
568.72	2.6670E-02
568.91	2.6439E-02
569.11	2.6541E-02
569.31	2.7306E-02
569.50	2.6240E-02
569.70	2.6762E-02
569.89	2.6482E-02
570.09	2.6308E-02
570.28	2.6054E-02
570.48	2.6330E-02
570.67	2.6973E-02
570.87	2.5892E-02
571.07	2.5889E-02
571.26	2.6584E-02
571.46	2.6330E-02
571.65	2.6597E-02
571.85	2.6853E-02
572.04	2.6464E-02
572.24	2.7235E-02
572.43	2.6420E-02
572.63	2.7045E-02
572.82	2.6459E-02
573.02	2.7001E-02
573.21	2.6399E-02
573.41	2.6826E-02
573.60	2.7321E-02
573.80	2.6983E-02
573.99	2.6621E-02
574.19	2.7340E-02
574.38	2.6696E-02
574.58	2.6939E-02
574.78	2.6196E-02
574.97	2.6977E-02
575.17	2.6737E-02
575.36	2.6345E-02
575.56	2.5974E-02
575.75	2.7085E-02
575.95	2.6369E-02
576.14	2.6067E-02
576.34	2.6927E-02
576.53	2.6139E-02
576.73	2.6436E-02
576.92	2.5751E-02
577.12	2.7093E-02
577.31	2.5364E-02
577.51	2.7014E-02
577.70	2.6429E-02
577.90	2.6426E-02
578.09	2.6782E-02
578.29	2.6184E-02
578.48	2.7114E-02
578.68	2.6539E-02
578.87	2.7617E-02
579.06	2.6367E-02
579.26	2.6835E-02
579.45	2.6326E-02
579.65	2.7625E-02
579.84	2.6774E-02
580.04	2.7297E-02
580.23	2.7472E-02
580.43	2.6137E-02
580.62	2.6942E-02
580.82	2.6932E-02
581.01	2.6662E-02
581.21	2.6551E-02
581.40	2.6352E-02
581.60	2.7179E-02
581.79	2.7338E-02
581.99	2.6467E-02
582.18	2.6496E-02
582.37	2.6922E-02
582.57	2.6966E-02
582.76	2.7353E-02
582.96	2.7446E-02
583.15	2.7232E-02
583.35	2.7234E-02
583.54	2.7336E-02
583.74	2.7124E-02
583.93	2.6553E-02
584.12	2.6203E-02
584.32	2.7532E-02
584.51	2.6961E-02
584.71	2.6155E-02
584.90	2.6399E-02
585.10	2.6451E-02
585.29	2.6655E-02
585.49	2.6760E-02
585.68	2.7089E-02
585.87	2.6724E-02
586.07	2.6572E-02
586.26	2.6351E-02
586.46	2.6370E-02
586.65	2.6036E-02
586.85	2.6421E-02
587.04	2.5238E-02
587.23	2.6499E-02
587.43	2.6149E-02
587.62	2.4755E-02
587.82	2.6005E-02
588.01	2.5291E-02
588.20	2.5478E-02
588.40	2.4774E-02
588.59	2.5483E-02
588.79	2.5634E-02
588.98	2.5989E-02
589.18	2.5401E-02
589.37	2.5892E-02
589.56	2.4981E-02
589.76	2.4744E-02
589.95	2.6128E-02
590.15	2.5549E-02
590.34	2.4932E-02
590.53	2.6068E-02
590.73	2.5412E-02
590.92	2.5498E-02
591.11	2.6103E-02
591.31	2.6116E-02
591.50	2.6543E-02
591.70	2.6163E-02
591.89	2.6967E-02
592.08	2.5830E-02
592.28	2.5520E-02
592.47	2.6788E-02
592.67	2.6563E-02
592.86	2.6593E-02
593.05	2.5702E-02
593.25	2.6808E-02
593.44	2.6357E-02
593.63	2.7206E-02
593.83	2.6296E-02
594.02	2.7404E-02
594.22	2.7336E-02
594.41	2.7818E-02
594.60	2.6978E-02
594.80	2.7122E-02
594.99	2.7163E-02
595.18	2.7206E-02
595.38	2.6964E-02
595.57	2.7233E-02
595.76	2.7516E-02
595.96	2.7282E-02
596.15	2.6431E-02
596.34	2.8393E-02
596.54	2.8097E-02
596.73	2.7585E-02
596.93	2.7928E-02
597.12	2.7395E-02
597.31	2.7970E-02
597.51	2.7436E-02
597.70	2.7674E-02
597.89	2.7315E-02
598.09	2.7126E-02
598.28	2.8809E-02
598.47	2.7531E-02
598.67	2.7824E-02
598.86	2.7173E-02
599.05	2.8489E-02
599.25	2.7826E-02
599.44	2.8217E-02
599.63	2.8691E-02
599.83	2.7673E-02
600.02	2.7831E-02
600.21	2.7881E-02
600.41	2.8152E-02
600.60	2.7201E-02
600.79	2.7862E-02
600.98	2.7934E-02
601.18	2.8812E-02
601.37	2.7438E-02
601.56	2.7702E-02
601.76	2.9308E-02
601.95	2.7712E-02
602.14	2.8026E-02
602.34	2.7958E-02
602.53	2.8659E-02
602.72	2.7659E-02
602.92	2.8408E-02
603.11	2.7906E-02
603.30	2.8483E-02
603.49	2.7860E-02
603.69	2.9120E-02
603.88	2.8377E-02
604.07	2.8936E-02
604.27	2.8400E-02
604.46	2.7662E-02
604.65	2.8442E-02
604.84	2.8326E-02
605.04	2.8778E-02
605.23	2.8450E-02
605.42	2.8417E-02
605.62	2.8699E-02
605.81	2.7929E-02
606.00	2.8150E-02
606.19	2.8666E-02
606.39	2.8672E-02
606.58	2.8020E-02
606.77	2.8209E-02
606.97	2.7608E-02
607.16	2.8481E-02
607.35	2.8828E-02
607.54	2.8226E-02
607.74	2.9021E-02
607.93	2.9177E-02
608.12	2.8158E-02
608.31	2.8545E-02
608.51	2.8823E-02
608.70	2.8335E-02
608.89	2.8152E-02
609.08	2.7676E-02
609.28	2.8462E-02
609.47	2.8626E-02
609.66	2.8826E-02
609.85	2.9077E-02
610.05	2.9176E-02
610.24	2.8373E-02
610.43	2.8801E-02
610.62	2.8397E-02
610.82	2.8139E-02
611.01	2.8717E-02
611.20	2.8404E-02
611.39	2.8462E-02
611.59	2.8337E-02
611.78	2.8838E-02
611.97	2.8519E-02
612.16	2.9320E-02
612.35	2.8167E-02
612.55	2.8219E-02
612.74	2.8763E-02
612.93	2.8626E-02
613.12	2.7619E-02
613.32	2.8276E-02
613.51	2.8471E-02
613.70	2.8352E-02
613.89	2.8368E-02
614.08	2.8614E-02
614.28	2.8315E-02
614.47	2.7819E-02
614.66	2.8126E-02
614.85	2.8620E-02
615.04	2.8477E-02
615.24	2.9237E-02
615.43	2.8317E-02
615.62	2.7978E-02
615.81	2.8057E-02
616.00	2.6975E-02
616.20	2.7949E-02
616.39	2.8070E-02
616.58	2.8067E-02
616.77	2.8179E-02
616.96	2.9483E-02
617.16	2.9341E-02
617.35	2.8952E-02
617.54	2.8364E-02
617.73	2.8070E-02
617.92	2.8124E-02
618.12	2.9157E-02
618.31	2.8778E-02
618.50	2.9022E-02
618.69	2.8588E-02
618.88	3.0010E-02
619.07	2.9261E-02
619.27	2.9605E-02
619.46	2.9773E-02
619.65	3.0557E-02
619.84	2.9450E-02
620.03	2.9345E-02
620.22	3.0560E-02
620.42	2.8613E-02
620.61	3.0669E-02
620.80	3.0271E-02
620.99	2.9996E-02
621.18	3.0951E-02
621.37	2.9696E-02
621.57	2.8618E-02
621.76	3.0221E-02
621.95	3.0086E-02
622.14	2.9229E-02
622.33	2.8782E-02
622.52	2.9518E-02
622.71	3.0334E-02
622.91	3.0634E-02
623.10	3.0366E-02
623.29	3.0060E-02
623.48	2.9551E-02
623.67	3.0328E-02
623.86	3.0219E-02
624.05	3.0119E-02
624.25	2.9305E-02
624.44	3.0395E-02
624.63	3.1146E-02
624.82	3.0477E-02
625.01	3.0081E-02
625.20	3.1114E-02
625.39	2.9642E-02
625.58	3.0871E-02
625.78	3.1221E-02
625.97	2.9495E-02
626.16	3.0254E-02
626.35	3.0123E-02
626.54	3.1066E-02
626.73	3.0976E-02
626.92	3.0391E-02
627.11	3.0283E-02
627.31	3.0278E-02
627.50	3.0153E-02
627.69	3.0739E-02
627.88	3.1172E-02
628.07	2.8828E-02
628.26	3.0217E-02
628.45	2.9789E-02
628.64	3.0052E-02
628.83	2.9920E-02
629.02	2.8380E-02
629.22	3.1292E-02
629.41	2.9702E-02
629.60	2.8618E-02
629.79	3.0744E-02
629.98	2.9619E-02
630.17	3.0340E-02
630.36	3.0087E-02
630.55	3.0221E-02
630.74	3.0567E-02
630.93	3.1223E-02
631.12	2.9606E-02
631.31	2.9762E-02
631.51	3.1048E-02
631.70	3.0860E-02
631.89	2.9854E-02
632.08	3.0041E-02
632.27	3.0522E-02
632.46	3.0239E-02
632.65	3.0440E-02
632.84	2.9478E-02
633.03	3.1509E-02
633.22	3.0389E-02
633.41	3.1405E-02
633.60	3.1322E-02
633.79	3.0516E-02
633.98	2.9385E-02
634.17	3.0633E-02
634.37	3.0572E-02
634.56	3.1319E-02
634.75	2.9576E-02
634.94	3.1071E-02
635.13	3.0287E-02
635.32	3.1137E-02
635.51	3.0973E-02
635.70	2.9708E-02
635.89	3.1946E-02
636.08	3.0462E-02
636.27	2.9654E-02
636.46	3.1059E-02
636.65	3.0180E-02
636.84	2.9347E-02
637.03	3.0745E-02
637.22	3.0621E-02
637.41	3.0111E-02
637.60	3.0585E-02
637.79	3.0757E-02
637.98	3.0366E-02
638.17	3.0436E-02
638.36	2.9620E-02
638.55	2.8903E-02
638.74	2.9056E-02
638.93	2.9448E-02
639.12	2.9228E-02
639.31	2.9523E-02
639.50	2.9074E-02
639.69	2.8843E-02
639.88	3.0008E-02
640.07	2.8935E-02
640.26	3.0132E-02
640.45	2.9504E-02
640.64	2.9945E-02
640.83	2.9820E-02
641.02	3.0662E-02
641.21	2.9601E-02
641.40	2.8067E-02
641.59	2.9831E-02
641.78	3.0146E-02
641.97	2.9820E-02
642.16	3.0301E-02
642.35	3.0009E-02
642.54	3.0044E-02
642.73	2.9546E-02
642.92	2.7340E-02
643.11	3.0011E-02
643.30	3.0270E-02
643.49	2.8959E-02
643.68	2.9420E-02
643.87	2.8207E-02
644.06	2.9347E-02
644.25	2.8447E-02
644.44	2.8751E-02
644.63	2.8461E-02
644.82	2.8447E-02
645.01	2.9092E-02
645.20	2.8897E-02
645.39	2.8235E-02
645.58	2.7934E-02
645.77	2.7970E-02
645.96	2.9090E-02
646.15	2.8271E-02
646.34	2.8558E-02
646.53	2.8246E-02
646.72	2.8536E-02
646.91	2.7512E-02
647.10	2.9594E-02
647.29	2.7919E-02
647.47	2.8805E-02
647.66	2.7925E-02
647.85	2.7440E-02
648.04	2.7580E-02
648.23	2.7665E-02
648.42	2.9781E-02
648.61	2.6808E-02
648.80	2.8111E-02
648.99	2.8809E-02
649.18	2.7279E-02
649.37	2.8603E-02
649.56	2.7961E-02
649.75	2.7571E-02
649.94	2.8756E-02
650.13	2.8325E-02
650.31	2.8402E-02
650.50	2.7610E-02
650.69	2.8406E-02
650.88	2.7720E-02
651.07	2.7936E-02
651.26	2.8460E-02
651.45	2.9686E-02
651.64	2.8672E-02
651.83	2.7538E-02
652.02	2.8311E-02
652.21	2.7627E-02
652.40	2.7649E-02
652.58	2.9722E-02
652.77	2.7392E-02
652.96	2.6959E-02
653.15	2.8195E-02
653.34	2.8054E-02
653.53	2.8066E-02
653.72	2.7826E-02
653.91	2.6638E-02
654.10	2.7209E-02
654.29	2.6364E-02
654.47	2.8406E-02
654.66	2.5621E-02
654.85	2.6095E-02
655.04	2.5269E-02
655.23	2.6340E-02
655.42	2.4730E-02
655.61	2.5971E-02
655.80	2.5703E-02
655.98	2.6643E-02
656.17	2.6382E-02
656.36	2.6930E-02
656.55	2.6068E-02
656.74	2.7832E-02
656.93	2.7515E-02
657.12	2.7755E-02
657.31	2.6423E-02
657.49	2.8791E-02
657.68	2.8131E-02
657.87	2.6126E-02
658.06	2.8911E-02
658.25	2.7318E-02
658.44	2.8494E-02
658.63	2.7630E-02
658.81	2.7195E-02
659.00	2.8254E-02
659.19	2.7641E-02
659.38	2.9604E-02
659.57	2.9569E-02
659.76	2.8186E-02
659.95	2.9783E-02
660.13	2.7212E-02
660.32	2.8821E-02
660.51	2.8242E-02
660.70	2.9303E-02
660.89	2.8329E-02
661.08	2.8744E-02
661.26	2.7991E-02
661.45	2.9074E-02
661.64	2.8256E-02
661.83	2.8139E-02
662.02	2.8530E-02
662.21	2.9328E-02
662.39	2.9897E-02
662.58	2.8918E-02
662.77	3.0799E-02
662.96	2.9790E-02
663.15	2.8539E-02
663.33	3.0417E-02
663.52	2.9013E-02
663.71	2.9165E-02
663.90	2.9292E-02
664.09	2.8002E-02
664.28	2.9069E-02
664.46	2.8314E-02
664.65	2.8390E-02
664.84	2.7497E-02
665.03	2.8683E-02
665.22	2.9154E-02
665.40	2.8961E-02
665.59	2.8158E-02
665.78	2.8008E-02
665.97	2.7834E-02
666.16	2.8583E-02
666.34	2.9201E-02
666.53	2.7469E-02
666.72	2.9037E-02
666.91	2.8151E-02
667.09	2.8386E-02
667.28	2.9064E-02
667.47	2.8899E-02
667.66	2.8190E-02
667.85	2.8164E-02
668.03	2.4617E-02
668.22	2.8840E-02
668.41	2.8042E-02
668.60	2.5937E-02
668.78	2.8865E-02
668.97	2.7899E-02
669.16	2.7058E-02
669.35	2.8978E-02
669.54	2.7082E-02
669.72	2.9137E-02
669.91	2.8187E-02
670.10	2.8827E-02
670.29	2.8643E-02
670.47	2.9487E-02
670.66	2.9919E-02
670.85	2.8727E-02
671.04	2.7398E-02
671.22	2.7415E-02
671.41	2.8517E-02
671.60	2.8773E-02
671.79	2.8732E-02
671.97	2.7974E-02
672.16	2.9976E-02
672.35	2.9253E-02
672.54	2.9185E-02
672.72	2.8228E-02
672.91	2.7306E-02
673.10	2.8153E-02
673.28	2.7596E-02
673.47	2.7704E-02
673.66	2.7853E-02
673.85	2.9605E-02
674.03	2.8593E-02
674.22	2.8593E-02
674.41	2.7636E-02
674.60	2.7722E-02
674.78	2.6248E-02
674.97	2.7123E-02
675.16	3.0350E-02
675.34	2.9035E-02
675.53	2.7998E-02
675.72	2.7313E-02
675.91	3.0082E-02
676.09	2.8720E-02
676.28	2.9604E-02
676.47	2.9095E-02
676.65	2.7426E-02
676.84	2.8834E-02
677.03	2.9563E-02
677.22	2.8148E-02
677.40	2.9411E-02
677.59	2.8848E-02
677.78	2.8370E-02
677.96	2.8833E-02
678.15	2.9542E-02
678.34	3.0603E-02
678.52	2.8145E-02
678.71	2.8712E-02
678.90	2.8891E-02
679.08	2.9338E-02
679.27	2.8051E-02
679.46	3.0343E-02
679.64	2.9259E-02
679.83	2.8692E-02
680.02	2.8933E-02
680.21	2.6651E-02
680.39	2.9874E-02
680.58	2.8861E-02
680.77	2.8391E-02
680.95	2.8725E-02
681.14	2.6923E-02
681.33	2.8654E-02
681.51	2.9466E-02
681.70	2.8906E-02
681.89	2.9559E-02
682.07	2.8601E-02
682.26	2.6615E-02
682.44	2.9149E-02
682.63	2.8814E-02
682.82	2.9458E-02
683.00	2.6278E-02
683.19	2.8423E-02
683.38	2.9056E-02
683.56	2.9487E-02
683.75	2.8796E-02
683.94	2.7167E-02
684.12	2.7204E-02
684.31	2.9062E-02
684.50	2.9414E-02
684.68	2.7762E-02
684.87	2.7634E-02
685.05	2.8048E-02
685.24	2.6213E-02
685.43	2.7422E-02
685.61	2.7274E-02
685.80	2.5968E-02
685.99	2.7369E-02
686.17	2.5698E-02
686.36	2.7841E-02
686.54	2.7735E-02
686.73	2.7087E-02
686.92	2.7210E-02
687.10	2.6400E-02
687.29	2.7835E-02
687.48	2.6315E-02
687.66	2.8761E-02
687.85	2.6670E-02
688.03	2.7390E-02
688.22	2.5944E-02
688.41	2.7914E-02
688.59	2.5842E-02
688.78	2.8171E-02
688.96	2.8758E-02
689.15	2.9839E-02
689.34	2.6154E-02
689.52	3.0589E-02
689.71	2.9110E-02
689.89	3.0193E-02
690.08	3.1643E-02
690.27	3.0211E-02
690.45	2.9700E-02
690.64	2.9573E-02
690.82	2.8686E-02
691.01	3.0492E-02
691.19	2.9834E-02
691.38	3.0547E-02
691.57	3.1457E-02
691.75	2.9717E-02
691.94	3.1768E-02
692.12	3.0329E-02
692.31	3.1877E-02
692.50	3.0766E-02
692.68	3.1753E-02
692.87	3.3060E-02
693.05	3.2277E-02
693.24	3.0530E-02
693.42	3.1414E-02
693.61	3.2370E-02
693.79	3.3279E-02
693.98	3.1484E-02
694.17	3.2707E-02
694.35	3.4212E-02
694.54	3.4423E-02
694.72	3.3626E-02
694.91	3.3755E-02
695.09	3.3960E-02
695.28	3.4227E-02
695.46	3.4655E-02
695.65	3.5119E-02
695.83	3.5552E-02
696.02	3.6775E-02
696.21	3.7179E-02
696.39	3.5878E-02
696.58	3.6987E-02
696.76	3.3579E-02
696.95	3.5536E-02
697.13	3.5963E-02
697.32	3.6717E-02
697.50	3.6634E-02
697.69	3.7289E-02
697.87	3.8137E-02
698.06	3.8215E-02
698.24	3.6749E-02
698.43	3.7307E-02
698.61	3.9697E-02
698.80	3.8397E-02
698.98	3.9896E-02
699.17	3.6482E-02
699.35	3.9221E-02
699.54	3.8599E-02
699.72	3.6784E-02
699.91	3.9923E-02
700.09	4.0083E-02
700.28	4.0537E-02
700.46	4.0721E-02
700.65	4.0219E-02
700.83	4.1114E-02
701.02	4.2080E-02
701.20	3.8866E-02
701.39	4.3261E-02
701.57	4.1912E-02
701.76	4.0612E-02
701.94	4.2070E-02
702.13	4.2916E-02
702.31	4.0147E-02
702.50	4.6395E-02
702.68	4.5116E-02
702.87	4.5864E-02
703.05	4.6087E-02
703.24	4.5323E-02
703.42	4.1680E-02
703.61	4.6572E-02
703.79	4.7640E-02
703.98	4.4716E-02
704.16	4.6127E-02
704.35	4.5666E-02
704.53	4.7000E-02
704.72	4.7325E-02
704.90	4.7865E-02
705.08	4.6062E-02
705.27	4.9333E-02
705.45	4.9054E-02
705.64	5.0063E-02
705.82	4.9615E-02
706.01	4.9546E-02
706.19	4.8616E-02
706.38	4.9489E-02
706.56	5.1784E-02
706.75	5.1495E-02
706.93	5.0866E-02
707.11	4.9056E-02
707.30	5.2028E-02
707.48	5.1781E-02
707.67	5.0401E-02
707.85	5.1521E-02
708.04	5.2614E-02
708.22	5.2401E-02
708.40	5.1369E-02
708.59	5.0838E-02
708.77	5.4108E-02
708.96	5.3177E-02
709.14	5.4215E-02
709.33	5.3588E-02
709.51	5.4985E-02
709.69	5.5193E-02
709.88	5.6004E-02
710.06	5.5883E-02
710.25	5.4645E-02
710.43	5.6281E-02
710.62	5.7795E-02
710.80	5.6661E-02
710.98	5.7751E-02
711.17	5.7188E-02
711.35	5.8163E-02
711.54	5.8695E-02
711.72	5.7138E-02
711.90	5.9212E-02
712.09	5.9260E-02
712.27	5.6855E-02
712.46	5.8679E-02
712.64	5.7005E-02
712.82	5.9864E-02
713.01	5.9901E-02
713.19	5.9730E-02
713.37	5.8411E-02
713.56	5.7882E-02
713.74	5.9696E-02
713.93	5.8247E-02
714.11	5.7174E-02
714.29	5.5390E-02
714.48	5.8300E-02
714.66	5.8157E-02
714.85	5.6276E-02
715.03	5.6588E-02
715.21	5.6056E-02
715.40	5.4484E-02
715.58	5.4511E-02
715.76	5.2762E-02
715.95	5.3528E-02
716.13	5.5621E-02
716.31	5.4220E-02
716.50	5.3651E-02
716.68	5.2331E-02
716.87	5.3770E-02
717.05	5.3460E-02
717.23	5.1235E-02
717.42	5.2682E-02
717.60	5.1518E-02
717.78	5.2104E-02
717.97	5.2026E-02
718.15	5.1320E-02
718.33	5.0669E-02
718.52	5.2200E-02
718.70	5.3248E-02
718.88	5.1489E-02
719.07	5.5349E-02
719.25	5.3096E-02
719.43	5.4479E-02
719.62	5.4209E-02
719.80	5.4594E-02
719.98	5.7348E-02
720.17	5.6450E-02
720.35	5.6602E-02
720.53	5.8578E-02
720.72	5.9721E-02
720.90	5.8749E-02
721.08	5.8064E-02
721.27	5.9226E-02
721.45	5.9557E-02
721.63	5.9470E-02
721.82	6.1071E-02
722.00	5.9810E-02
722.18	6.0024E-02
722.36	6.2235E-02
722.55	6.1604E-02
722.73	6.1959E-02
722.91	6.1979E-02
723.10	6.3333E-02
723.28	6.2111E-02
723.46	5.8907E-02
723.65	6.1392E-02
723.83	6.1377E-02
724.01	6.1064E-02
724.19	6.2510E-02
724.38	6.2693E-02
724.56	6.3405E-02
724.74	6.4338E-02
724.93	6.1174E-02
725.11	6.1824E-02
725.29	6.4276E-02
725.47	6.4259E-02
725.66	6.4308E-02
725.84	6.3923E-02
726.02	6.4429E-02
726.21	6.6499E-02
726.39	6.4767E-02
726.57	6.5474E-02
726.75	6.4870E-02
726.94	6.7407E-02
727.12	6.5776E-02
727.30	6.5973E-02
727.48	6.5136E-02
727.67	6.7546E-02
727.85	6.6202E-02
728.03	6.7613E-02
728.21	6.9441E-02
728.40	6.7447E-02
728.58	7.0382E-02
728.76	6.9004E-02
728.94	7.0337E-02
729.13	7.1478E-02
729.31	6.9497E-02
729.49	7.1490E-02
729.67	7.1905E-02
729.86	7.3037E-02
730.04	7.1063E-02
730.22	7.4170E-02
730.40	7.4396E-02
730.59	7.5023E-02
730.77	7.5856E-02
730.95	7.8110E-02
731.13	7.7379E-02
731.31	7.8439E-02
731.50	7.6603E-02
731.68	8.1031E-02
731.86	7.9711E-02
732.04	8.1049E-02
732.23	8.2970E-02
732.41	8.2078E-02
732.59	8.3371E-02
732.77	8.3823E-02
732.95	8.4398E-02
733.14	8.3616E-02
733.32	8.6784E-02
733.50	8.5823E-02
733.68	8.5857E-02
733.86	8.6217E-02
734.05	8.7829E-02
734.23	8.8365E-02
734.41	8.5508E-02
734.59	8.7510E-02
734.77	8.8344E-02
734.96	8.5742E-02
735.14	8.9971E-02
735.32	8.9635E-02
735.50	8.9574E-02
735.68	9.2123E-02
735.87	9.0744E-02
736.05	9.3845E-02
736.23	8.9321E-02
736.41	9.3313E-02
736.59	9.2929E-02
736.77	9.2451E-02
736.96	9.2348E-02
737.14	9.0725E-02
737.32	9.4220E-02
737.50	9.5058E-02
737.68	9.4415E-02
737.87	9.5591E-02
738.05	9.7390E-02
738.23	9.3459E-02
738.41	9.5445E-02
738.59	9.6190E-02
738.77	9.7273E-02
738.95	9.9048E-02
739.14	9.6183E-02
739.32	9.6930E-02
739.50	1.0056E-01
739.68	9.7423E-02
739.86	9.8612E-02
740.04	9.8421E-02
740.23	9.6620E-02
740.41	1.0001E-01
740.59	1.0067E-01
740.77	1.0186E-01
740.95	1.0073E-01
741.13	1.0022E-01
741.31	9.9971E-02
741.50	1.0077E-01
741.68	1.0029E-01
741.86	1.0012E-01
742.04	1.0294E-01
742.22	1.0396E-01
742.40	1.0340E-01
742.58	1.0418E-01
742.76	1.0477E-01
742.95	1.0136E-01
743.13	1.0595E-01
743.31	1.0492E-01
743.49	1.0425E-01
743.67	1.0690E-01
743.85	1.0623E-01
744.03	1.0501E-01
744.21	1.0629E-01
744.39	1.0445E-01
744.58	1.0746E-01
744.76	1.0743E-01
744.94	1.0898E-01
745.12	1.0744E-01
745.30	1.0618E-01
745.48	1.0822E-01
745.66	1.0912E-01
745.84	1.0596E-01
746.02	1.0617E-01
746.20	1.0764E-01
746.38	1.0892E-01
746.57	1.1108E-01
746.75	1.0557E-01
746.93	1.0901E-01
747.11	1.0649E-01
747.29	1.0830E-01
747.47	1.1004E-01
747.65	1.0940E-01
747.83	1.0612E-01
748.01	1.0894E-01
748.19	1.0954E-01
748.37	1.0942E-01
748.55	1.0907E-01
748.73	1.0807E-01
748.92	1.0979E-01
749.10	1.0798E-01
749.28	1.1057E-01
749.46	1.0868E-01
749.64	1.0796E-01
749.82	1.0875E-01
750.00	1.1046E-01
750.18	1.0959E-01
750.36	1.0708E-01
750.54	1.1011E-01
750.72	1.1156E-01
750.90	1.1154E-01
751.08	1.1021E-01
751.26	1.1196E-01
751.44	1.1190E-01
751.62	1.1354E-01
751.80	1.1142E-01
751.98	1.1223E-01
752.16	1.1293E-01
752.34	1.1340E-01
752.52	1.1428E-01
752.71	1.1050E-01
752.89	1.1023E-01
753.07	1.1461E-01
753.25	1.1064E-01
753.43	1.1490E-01
753.61	1.1218E-01
753.79	1.1589E-01
753.97	1.1515E-01
754.15	1.1587E-01
754.33	1.1649E-01
754.51	1.1684E-01
754.69	1.1721E-01
754.87	1.1585E-01
755.05	1.1628E-01
755.23	1.1843E-01
755.41	1.1966E-01
755.59	1.0943E-01
755.77	1.1581E-01
755.95	1.1510E-01
756.13	1.1169E-01
756.31	1.1510E-01
756.49	1.1480E-01
756.67	1.1191E-01
756.85	1.1029E-01
757.03	1.0810E-01
757.21	1.0733E-01
757.39	1.0646E-01
757.57	1.0551E-01
757.75	1.0043E-01
757.93	9.5710E-02
758.11	9.5698E-02
758.29	9.3674E-02
758.47	9.0199E-02
758.65	8.9560E-02
758.83	9.0908E-02
759.01	8.6965E-02
759.18	8.3750E-02
759.36	7.8044E-02
759.54	7.9868E-02
759.72	7.5844E-02
759.90	7.6707E-02
760.08	7.5717E-02
760.26	7.5242E-02
760.44	7.1722E-02
760.62	6.9214E-02
760.80	6.9120E-02
760.98	7.3469E-02
761.16	7.3111E-02
761.34	7.1021E-02
761.52	7.4395E-02
761.70	7.0608E-02
761.88	7.1312E-02
762.06	7.1909E-02
762.24	7.1628E-02
762.42	7.2358E-02
762.60	7.3146E-02
762.78	7.4892E-02
762.95	7.4500E-02
763.13	7.7465E-02
763.31	7.9182E-02
763.49	7.8715E-02
763.67	8.0746E-02
763.85	7.9159E-02
764.03	8.5140E-02
764.21	8.3613E-02
764.39	8.7217E-02
764.57	9.1077E-02
764.75	9.1042E-02
764.93	9.7119E-02
765.11	9.4373E-02
765.28	9.9291E-02
765.46	1.0002E-01
765.64	1.0075E-01
765.82	1.0402E-01
766.00	1.0667E-01
766.18	1.0817E-01
766.36	1.0932E-01
766.54	1.1005E-01
766.72	1.1197E-01
766.90	1.1686E-01
767.07	1.1251E-01
767.25	1.1615E-01
767.43	1.1789E-01
767.61	1.2086E-01
767.79	1.2170E-01
767.97	1.2149E-01
768.15	1.2096E-01
768.33	1.2016E-01
768.51	1.2378E-01
768.68	1.2397E-01
768.86	1.2249E-01
769.04	1.2348E-01
769.22	1.2853E-01
769.40	1.2792E-01
769.58	1.2534E-01
769.76	1.3030E-01
769.94	1.2990E-01
770.11	1.2675E-01
770.29	1.2844E-01
770.47	1.2836E-01
770.65	1.2897E-01
770.83	1.2854E-01
771.01	1.3053E-01
771.19	1.3027E-01
771.36	1.2760E-01
771.54	1.3046E-01
771.72	1.2881E-01
771.90	1.2635E-01
772.08	1.2933E-01
772.26	1.3148E-01
772.44	1.2650E-01
772.61	1.2940E-01
772.79	1.2617E-01
772.97	1.3016E-01
773.15	1.3210E-01
773.33	1.2765E-01
773.51	1.3047E-01
773.68	1.2728E-01
773.86	1.2624E-01
774.04	1.2824E-01
774.22	1.2564E-01
774.40	1.2761E-01
774.58	1.2934E-01
774.75	1.2867E-01
774.93	1.2466E-01
775.11	1.2947E-01
775.29	1.2659E-01
775.47	1.2429E-01
775.64	1.2878E-01
775.82	1.2712E-01
776.00	1.2818E-01
776.18	1.2570E-01
776.36	1.2607E-01
776.53	1.3071E-01
776.71	1.2611E-01
776.89	1.2561E-01
777.07	1.2759E-01
777.25	1.2699E-01
777.42	1.2683E-01
777.60	1.2449E-01
777.78	1.2681E-01
777.96	1.2529E-01
778.14	1.2747E-01
778.31	1.2519E-01
778.49	1.2119E-01
778.67	1.2250E-01
778.85	1.2385E-01
779.03	1.2551E-01
779.20	1.2479E-01
779.38	1.2312E-01
779.56	1.1978E-01
779.74	1.2364E-01
779.91	1.2123E-01
780.09	1.2047E-01
780.27	1.1811E-01
780.45	1.1947E-01
780.62	1.2096E-01
780.80	1.2174E-01
780.98	1.1749E-01
781.16	1.1546E-01
781.34	1.1982E-01
781.51	1.2066E-01
781.69	1.2100E-01
781.87	1.1971E-01
782.05	1.1848E-01
782.22	1.1889E-01
782.40	1.1728E-01
782.58	1.1861E-01
782.76	1.1562E-01
782.93	1.1888E-01
783.11	1.2075E-01
783.29	1.1672E-01
783.47	1.1664E-01
783.64	1.1763E-01
783.82	1.1523E-01
784.00	1.1166E-01
784.17	1.1443E-01
784.35	1.1505E-01
784.53	1.1368E-01
784.71	1.1516E-01
784.88	1.1304E-01
785.06	1.1684E-01
785.24	1.1304E-01
785.42	1.1540E-01
785.59	1.1397E-01
785.77	1.0939E-01
785.95	1.1152E-01
786.12	1.0914E-01
786.30	1.1170E-01
786.48	1.1105E-01
786.65	1.0968E-01
786.83	1.1076E-01
787.01	1.1120E-01
787.19	1.0969E-01
787.36	1.1058E-01
787.54	1.0941E-01
787.72	1.1061E-01
787.89	1.1004E-01
788.07	1.0916E-01
788.25	1.0819E-01
788.42	1.0729E-01
788.60	1.1013E-01
788.78	1.0723E-01
788.96	1.0782E-01
789.13	1.0524E-01
789.31	1.0584E-01
789.49	1.0561E-01
789.66	1.0774E-01
789.84	1.0433E-01
790.02	1.0056E-01
790.19	1.0339E-01
790.37	1.0480E-01
790.55	1.0345E-01
790.72	1.0383E-01
790.90	1.0738E-01
791.08	1.0278E-01
791.25	1.0352E-01
791.43	1.0391E-01
791.61	1.0231E-01
791.78	1.0227E-01
791.96	9.8932E-02
792.14	1.0205E-01
792.31	1.0408E-01
792.49	9.8327E-02
792.67	1.0469E-01
792.84	1.0019E-01
793.02	1.0024E-01
793.19	9.9143E-02
793.37	1.0226E-01
793.55	1.0256E-01
793.72	1.0142E-01
793.90	9.7800E-02
794.08	1.0017E-01
794.25	1.0057E-01
794.43	9.7787E-02
794.61	9.9824E-02
794.78	9.9683E-02
794.96	9.6316E-02
795.13	9.9401E-02
795.31	1.0014E-01
795.49	9.6047E-02
795.66	9.8777E-02
795.84	9.7635E-02
796.01	9.8485E-02
796.19	9.6660E-02
796.37	9.9457E-02
796.54	9.8068E-02
796.72	9.9575E-02
796.90	9.7599E-02
797.07	9.5381E-02
797.25	9.8162E-02
797.42	1.0053E-01
797.60	9.9513E-02
797.78	9.7820E-02
797.95	9.5477E-02
798.13	9.4135E-02
798.30	9.7175E-02
798.48	9.6183E-02
798.66	9.8519E-02
798.83	9.3235E-02
799.01	9.5882E-02
799.18	9.3731E-02
799.36	9.7210E-02
799.53	9.0316E-02
799.71	9.5912E-02
799.89	9.2972E-02
800.06	9.3161E-02
800.24	9.3296E-02
800.41	8.9512E-02
800.59	9.5271E-02
800.76	9.0550E-02
800.94	9.0445E-02
801.12	9.3424E-02
801.29	9.2743E-02
801.47	9.3810E-02
801.64	8.9835E-02
801.82	9.3379E-02
801.99	9.3226E-02
802.17	9.3081E-02
802.34	9.1993E-02
802.52	9.1889E-02
802.70	9.3498E-02
802.87	8.9738E-02
803.05	8.8474E-02
803.22	9.4403E-02
803.40	9.0507E-02
803.57	9.0752E-02
803.75	9.4354E-02
803.92	9.2006E-02
804.10	8.7914E-02
804.27	8.8565E-02
804.45	9.0793E-02
804.63	8.9627E-02
804.80	8.7777E-02
804.98	9.0435E-02
805.15	8.6235E-02
805.33	9.2746E-02
805.50	9.3304E-02
805.68	9.2022E-02
805.85	9.3599E-02
806.03	9.0789E-02
806.20	9.1097E-02
806.38	8.4167E-02
806.55	8.6234E-02
806.73	9.2755E-02
806.90	8.9073E-02
807.08	8.7950E-02
807.25	8.4413E-02
807.43	8.7834E-02
807.60	8.9380E-02
807.78	8.5069E-02
807.95	8.1367E-02
808.13	8.3164E-02
808.30	8.2006E-02
808.48	8.6545E-02
808.65	8.4532E-02
808.83	8.8657E-02
809.00	8.4788E-02
809.18	8.8559E-02
809.35	8.2087E-02
809.53	8.6347E-02
809.70	8.4160E-02
809.88	8.4676E-02
810.05	8.3537E-02
810.23	8.5379E-02
810.40	8.3308E-02
810.57	8.2883E-02
810.75	7.9672E-02
810.92	7.9239E-02
811.10	8.0079E-02
811.27	7.6844E-02
811.45	7.8823E-02
811.62	7.7626E-02
811.80	7.5671E-02
811.97	7.8408E-02
812.15	7.8519E-02
812.32	7.8379E-02
812.50	7.2413E-02
812.67	8.1396E-02
812.84	7.3303E-02
813.02	7.6248E-02
813.19	7.5510E-02
813.37	7.5777E-02
813.54	7.2421E-02
813.72	7.3967E-02
813.89	7.0578E-02
814.07	7.3372E-02
814.24	7.3858E-02
814.41	7.4374E-02
814.59	6.9863E-02
814.76	6.8891E-02
814.94	7.1557E-02
815.11	7.2593E-02
815.29	6.3884E-02
815.46	6.5388E-02
815.63	6.7322E-02
815.81	6.7360E-02
815.98	6.1038E-02
816.16	6.1935E-02
816.33	6.7589E-02
816.50	6.9263E-02
816.68	6.6813E-02
816.85	6.4601E-02
817.03	6.7144E-02
817.20	6.5391E-02
817.37	6.7762E-02
817.55	6.4654E-02
817.72	6.6468E-02
817.90	6.2219E-02
818.07	6.5875E-02
818.24	6.0991E-02
818.42	6.3186E-02
818.59	6.3137E-02
818.77	6.3324E-02
818.94	6.7076E-02
819.11	6.1810E-02
819.29	6.7452E-02
819.46	6.6862E-02
819.64	6.1041E-02
819.81	6.9510E-02
819.98	6.8043E-02
820.16	6.3879E-02
820.33	6.7416E-02
820.50	6.6862E-02
820.68	6.3437E-02
820.85	6.6830E-02
821.02	6.5558E-02
821.20	6.2910E-02
821.37	6.6541E-02
821.55	6.0920E-02
821.72	6.4758E-02
821.89	6.5363E-02
822.07	6.8736E-02
822.24	6.8224E-02
822.41	6.1361E-02
822.59	7.1075E-02
822.76	7.1141E-02
822.93	6.5644E-02
823.11	6.7134E-02
823.28	6.9467E-02
823.45	6.6507E-02
823.63	6.6758E-02
823.80	7.0164E-02
823.97	6.1571E-02
824.15	7.0323E-02
824.32	6.6446E-02
824.49	7.3320E-02
824.67	6.7030E-02
824.84	6.9361E-02
825.01	6.8949E-02
825.19	6.9202E-02
825.36	6.9208E-02
825.53	7.2454E-02
825.71	7.0752E-02
825.88	7.1668E-02
826.05	6.6375E-02
826.23	7.0456E-02
826.40	6.7445E-02
826.57	6.8066E-02
826.75	6.6625E-02
826.92	6.3803E-02
827.09	6.4067E-02
827.26	7.2937E-02
827.44	6.8786E-02
827.61	7.2780E-02
827.78	7.0156E-02
827.96	6.4172E-02
828.13	7.3070E-02
828.30	7.0098E-02
828.48	6.8212E-02
828.65	6.7567E-02
828.82	6.8313E-02
828.99	6.8165E-02
829.17	6.9183E-02
829.34	6.1857E-02
829.51	6.7598E-02
829.68	7.1937E-02
829.86	7.0454E-02
830.03	6.7659E-02
830.20	6.9643E-02
830.38	6.7971E-02
830.55	6.4489E-02
830.72	6.8889E-02
830.89	6.3372E-02
831.07	6.3643E-02
831.24	6.3709E-02
831.41	6.5180E-02
831.58	6.8634E-02
831.76	7.2154E-02
831.93	6.9344E-02
832.10	6.9069E-02
832.27	6.2567E-02
832.45	6.2722E-02
832.62	6.8090E-02
832.79	6.4838E-02
832.96	6.8573E-02
833.14	6.2608E-02
833.31	7.1723E-02
833.48	6.8076E-02
833.65	6.5087E-02
833.83	7.1775E-02
834.00	7.2800E-02
834.17	6.7883E-02
834.34	7.0657E-02
834.51	6.8157E-02
834.69	6.5499E-02
834.86	7.1509E-02
835.03	6.7518E-02
835.20	7.1486E-02
835.38	6.8280E-02
835.55	6.9171E-02
835.72	6.7306E-02
835.89	7.6389E-02
836.06	6.7057E-02
836.24	6.7065E-02
836.41	6.4398E-02
836.58	7.1869E-02
836.75	7.0857E-02
836.92	6.9131E-02
837.10	6.5251E-02
837.27	6.7811E-02
837.44	6.4973E-02
837.61	7.2198E-02
837.78	6.6103E-02
837.96	6.9566E-02
838.13	6.7418E-02
838.30	7.1352E-02
838.47	6.9574E-02
838.64	6.7710E-02
838.82	6.6824E-02
838.99	7.3386E-02
839.16	6.6058E-02
839.33	6.6826E-02
839.50	7.2601E-02
839.67	6.9104E-02
839.85	6.2146E-02
840.02	6.8229E-02
840.19	6.5402E-02
840.36	7.1762E-02
840.53	6.4455E-02
840.70	6.3635E-02
840.88	7.0786E-02
841.05	7.2674E-02
841.22	6.9390E-02
841.39	6.8831E-02
841.56	6.9825E-02
841.73	6.8029E-02
841.91	7.1094E-02
842.08	7.0734E-02
842.25	7.0031E-02
842.42	7.1784E-02
842.59	6.9840E-02
842.76	7.6682E-02
842.93	7.0717E-02
843.11	7.2620E-02
843.28	7.0747E-02
843.45	7.1129E-02
843.62	6.6514E-02
843.79	6.8023E-02
843.96	7.4763E-02
844.13	7.0710E-02
844.30	7.0244E-02
844.48	7.4087E-02
844.65	6.6050E-02
844.82	6.2775E-02
844.99	6.7695E-02
845.16	6.6739E-02
845.33	6.8003E-02
845.50	6.7991E-02
845.67	6.3064E-02
845.84	6.7637E-02
846.02	6.4754E-02
846.19	6.7729E-02
846.36	6.7413E-02
846.53	7.3174E-02
846.70	6.8308E-02
846.87	6.1807E-02
847.04	6.9400E-02
847.21	6.9103E-02
847.38	6.9057E-02
847.55	6.9206E-02
847.73	6.4629E-02
847.90	6.7122E-02
848.07	6.2968E-02
848.24	6.4468E-02
848.41	6.2784E-02
848.58	7.6033E-02
848.75	6.6119E-02
848.92	7.3608E-02
849.09	6.7507E-02
849.26	6.4955E-02
849.43	6.2624E-02
849.60	6.5917E-02
849.77	6.9525E-02
849.94	5.3853E-02
850.12	7.0314E-02
850.29	6.7065E-02
850.46	6.4833E-02
850.63	6.3238E-02
850.80	6.6550E-02
850.97	6.6242E-02
851.14	6.0512E-02
851.31	5.6128E-02
851.48	6.1633E-02
851.65	6.3747E-02
851.82	6.8484E-02
851.99	6.6582E-02
852.16	5.6164E-02
852.33	6.4452E-02
852.50	6.1267E-02
852.67	6.2673E-02
852.84	6.4962E-02
853.01	6.1897E-02
853.18	6.5202E-02
853.35	5.9168E-02
853.52	6.9597E-02
853.69	6.2508E-02
853.86	5.7594E-02
854.03	5.6824E-02
854.21	6.4266E-02
854.38	6.2327E-02
854.55	6.5238E-02
854.72	6.6190E-02
854.89	5.8293E-02
855.06	5.3335E-02
855.23	6.1776E-02
855.40	6.7404E-02
855.57	5.7357E-02
855.74	6.0332E-02
855.91	6.2353E-02
856.08	5.7355E-02
856.25	6.2466E-02
856.42	6.1044E-02
856.59	6.0735E-02
856.76	6.3008E-02
856.93	6.2600E-02
857.10	6.2077E-02
857.27	6.8854E-02
857.44	6.3942E-02
857.61	6.4226E-02
857.77	5.8787E-02
857.94	5.9364E-02
858.11	5.8754E-02
858.28	6.8229E-02
858.45	5.8867E-02
858.62	6.4215E-02
858.79	6.0933E-02
858.96	6.1739E-02
859.13	6.2291E-02
859.30	6.6013E-02
859.47	6.0024E-02
859.64	5.4303E-02
859.81	6.5460E-02
859.98	6.5712E-02
860.15	6.1868E-02
860.32	5.8874E-02
860.49	7.2250E-02
860.66	6.3868E-02
860.83	6.5574E-02
861.00	6.4020E-02
861.17	6.4399E-02
861.34	6.5202E-02
861.51	5.4257E-02
861.68	6.5609E-02
861.84	6.2983E-02
862.01	5.7977E-02
862.18	5.9938E-02
862.35	6.3770E-02
862.52	6.3316E-02
862.69	6.0099E-02
862.86	6.2660E-02
863.03	6.5157E-02
863.20	6.2796E-02
863.37	6.4396E-02
863.54	5.8013E-02
863.71	5.7973E-02
863.88	6.1188E-02
864.05	5.9942E-02
864.21	6.3605E-02
864.38	5.5795E-02
864.55	5.4006E-02
864.72	6.5593E-02
864.89	5.9755E-02
865.06	6.4366E-02
865.23	5.7921E-02
865.40	5.4252E-02
865.57	6.4932E-02
865.74	6.0504E-02
865.90	6.1452E-02
866.07	6.1034E-02
866.24	5.3500E-02
866.41	5.2045E-02
866.58	5.4616E-02
866.75	5.5740E-02
866.92	5.6108E-02
867.09	5.6454E-02
867.26	5.7057E-02
867.42	5.1877E-02
867.59	4.8344E-02
867.76	5.9162E-02
867.93	5.4546E-02
868.10	5.6957E-02
868.27	4.7418E-02
868.44	5.7367E-02
868.60	6.0101E-02
868.77	5.8857E-02
868.94	5.6011E-02
869.11	5.5252E-02
869.28	6.0659E-02
869.45	4.8976E-02
869.62	5.8922E-02
869.78	5.6019E-02
869.95	5.0812E-02
870.12	5.3962E-02
870.29	5.8149E-02
870.46	5.9033E-02
870.63	5.3709E-02
870.80	4.8795E-02
870.96	5.3386E-02
871.13	5.2280E-02
871.30	5.7822E-02
871.47	5.8854E-02
871.64	5.8254E-02
871.81	4.4409E-02
871.97	6.1232E-02
872.14	4.8500E-02
872.31	4.6722E-02
872.48	5.1885E-02
872.65	5.8388E-02
872.81	5.3142E-02
872.98	6.1016E-02
873.15	5.7638E-02
873.32	5.7474E-02
873.49	5.2870E-02
873.66	5.7348E-02
873.82	5.3638E-02
873.99	5.0685E-02
874.16	5.5988E-02
874.33	5.2540E-02
874.50	5.7883E-02
874.66	5.4006E-02
874.83	5.5389E-02
875.00	5.3890E-02
875.17	4.4909E-02
875.34	5.8313E-02
875.50	5.2549E-02
875.67	5.0801E-02
875.84	5.2929E-02
876.01	5.0185E-02
876.17	4.7447E-02
876.34	4.7422E-02
876.51	5.8721E-02
876.68	5.5926E-02
876.85	5.4239E-02
877.01	5.7339E-02
877.18	5.0452E-02
877.35	5.2511E-02
877.52	5.2024E-02
877.68	5.5688E-02
877.85	5.0393E-02
878.02	5.2902E-02
878.19	5.0321E-02
878.35	5.2563E-02
878.52	5.1695E-02
878.69	5.3596E-02
878.86	4.6690E-02
879.02	5.0367E-02
879.19	4.4884E-02
879.36	4.8205E-02
879.53	4.0546E-02
879.69	4.7405E-02
879.86	5.4763E-02
880.03	5.3362E-02
880.20	4.6898E-02
880.36	5.4562E-02
880.53	4.5185E-02
880.70	5.5423E-02
880.87	4.8921E-02
881.03	4.9109E-02
881.20	4.0889E-02
881.37	4.8170E-02
881.54	5.0538E-02
881.70	5.4738E-02
881.87	4.6795E-02
882.04	4.7384E-02
882.20	4.7790E-02
882.37	4.1588E-02
882.54	5.0425E-02
882.71	4.9572E-02
882.87	5.4595E-02
883.04	4.7732E-02
883.21	4.7721E-02
883.37	4.5686E-02
883.54	4.8756E-02
883.71	4.6745E-02
883.87	4.3711E-02
884.04	5.4096E-02
884.21	4.7139E-02
884.38	4.4094E-02
884.54	5.5210E-02
884.71	5.5283E-02
884.88	4.6755E-02
885.04	4.9363E-02
885.21	4.5247E-02
885.38	4.5265E-02
885.54	5.7385E-02
885.71	4.6088E-02
885.88	4.9848E-02
886.04	4.8569E-02
886.21	4.9266E-02
886.38	4.5887E-02
886.54	4.6781E-02
886.71	4.2661E-02
886.88	5.2655E-02
887.04	3.9129E-02
887.21	4.3614E-02
887.38	4.9112E-02
887.54	4.5386E-02
887.71	5.3951E-02
887.88	4.7569E-02
888.04	4.6633E-02
888.21	4.8466E-02
888.38	4.9417E-02
888.54	4.1884E-02
888.71	3.7986E-02
888.87	3.0596E-02
889.04	3.0596E-02
>>>>>End Processed Spectral Data<<<<<
